SpectraSuite Data File
++++++++++++++++++++++++++++++++++++
Date: Thu Mar 30 15:50:33 PDT 2017
User: UCSD _CER
Dark Spectrum Present: No
Reference Spectrum Present: No
Number of Sampled Component Spectra: 1
Spectrometers: USB4C00073
Integration Time (usec): 250000 (USB4C00073)
Spectra Averaged: 10 (USB4C00073)
Boxcar Smoothing: 0 (USB4C00073)
Correct for Electrical Dark: No (USB4C00073)
Strobe/Lamp Enabled: No (USB4C00073)
Correct for Detector Non-linearity: No (USB4C00073)
Correct for Stray Light: No (USB4C00073)
Number of Pixels in Processed Spectrum: 3648
>>>>>Begin Processed Spectral Data<<<<<
345.37	1268.72
345.58	1268.72
345.80	1268.72
346.01	1272.20
346.22	1264.83
346.43	1991.44
346.65	1776.61
346.86	2119.44
347.07	2104.70
347.28	1769.65
347.50	1790.54
347.71	1912.19
347.92	1719.06
348.13	1785.62
348.35	1718.04
348.56	1907.48
348.77	1774.56
348.98	1829.86
349.20	1656.19
349.41	1921.81
349.62	2000.25
349.83	1862.83
350.05	1741.59
350.26	1958.88
350.47	2093.23
350.68	1786.65
350.90	1736.47
351.11	2103.67
351.32	2087.49
351.53	1841.33
351.75	1763.92
351.96	1974.24
352.17	1932.67
352.38	1860.17
352.60	1884.75
352.81	1951.30
353.02	2168.39
353.23	1779.48
353.44	1837.64
353.66	1862.01
353.87	1908.50
354.08	1931.85
354.29	1826.79
354.51	1852.59
354.72	1892.94
354.93	1770.67
355.14	1730.94
355.35	1739.75
355.57	2050.22
355.78	1819.01
355.99	1893.35
356.20	1942.70
356.42	1909.94
356.63	1928.78
356.84	1851.16
357.05	2062.92
357.26	2214.06
357.48	1935.54
357.69	1873.07
357.90	1987.35
358.11	1882.90
358.32	1846.04
358.54	1870.82
358.75	1891.50
358.96	1994.11
359.17	1814.71
359.38	1813.68
359.60	1995.13
359.81	1908.71
360.02	1809.79
360.23	1772.31
360.44	1861.81
360.66	2037.11
360.87	1769.04
361.08	1748.97
361.29	1942.91
361.50	1930.82
361.72	1829.25
361.93	1856.07
362.14	1925.50
362.35	1724.39
362.56	1922.63
362.77	1744.05
362.99	2003.94
363.20	1953.76
363.41	1871.43
363.62	1702.68
363.83	1965.44
364.05	2010.49
364.26	1706.57
364.47	1762.69
364.68	2074.18
364.89	1811.43
365.10	1750.40
365.32	1822.28
365.53	1781.94
365.74	1854.85
365.95	1816.55
366.16	1709.64
366.37	1910.35
366.59	1872.66
366.80	1824.74
367.01	1667.87
367.22	2179.86
367.43	2269.97
367.64	1828.84
367.86	1789.52
368.07	1982.43
368.28	2088.93
368.49	1748.97
368.70	1845.83
368.91	1876.35
369.12	1906.45
369.34	1719.06
369.55	1739.75
369.76	1891.50
369.97	1862.22
370.18	1743.85
370.39	1761.87
370.60	1758.39
370.82	1807.95
371.03	1804.87
371.24	1775.38
371.45	2015.82
371.66	1982.43
371.87	1839.49
372.08	1796.07
372.30	1818.80
372.51	2075.41
372.72	1932.26
372.93	1815.32
373.14	2132.55
373.35	1841.94
373.56	1762.69
373.78	1840.51
373.99	2024.62
374.20	2310.31
374.41	1808.36
374.62	1809.38
374.83	2098.35
375.04	1867.95
375.25	1843.79
375.47	1776.00
375.68	1880.44
375.89	2028.31
376.10	1839.08
376.31	1900.31
376.52	1978.75
376.73	1975.27
376.94	1823.51
377.15	1784.60
377.37	1922.22
377.58	1906.45
377.79	1723.37
378.00	1757.36
378.21	1974.45
378.42	2016.63
378.63	1855.05
378.84	1895.60
379.05	2049.20
379.27	1931.85
379.48	1941.06
379.69	1800.16
379.90	2078.28
380.11	1721.11
380.32	1858.94
380.53	1952.53
380.74	2106.95
380.95	1960.32
381.16	1834.37
381.37	1819.42
381.59	2093.43
381.80	2065.17
382.01	1791.56
382.22	1730.74
382.43	2010.70
382.64	1960.52
382.85	1777.23
383.06	1905.43
383.27	2037.32
383.48	1930.21
383.69	1892.12
383.91	1813.27
384.12	2048.38
384.33	2081.35
384.54	1946.80
384.75	1823.51
384.96	2416.81
385.17	2169.21
385.38	1890.68
385.59	1852.80
385.80	2074.80
386.01	2188.25
386.22	1966.87
386.43	1923.45
386.64	2268.33
386.86	1992.26
387.07	2000.25
387.28	1796.68
387.49	1933.49
387.70	2144.63
387.91	1967.28
388.12	1841.33
388.33	2037.32
388.54	1894.99
388.75	1864.68
388.96	1878.60
389.17	1867.13
389.38	1892.12
389.59	1890.07
389.80	1872.46
390.01	1939.22
390.22	1887.41
390.43	1974.24
390.64	1720.09
390.86	2004.96
391.07	2099.78
391.28	1849.52
391.49	1893.35
391.70	1795.86
391.91	1868.57
392.12	1855.25
392.33	1846.04
392.54	1932.87
392.75	1927.34
392.96	1929.39
393.17	1790.33
393.38	2227.99
393.59	2073.57
393.80	1763.30
394.01	1851.98
394.22	1951.10
394.43	2207.71
394.64	1847.88
394.85	1959.70
395.06	1936.56
395.27	1975.88
395.48	1851.77
395.69	1747.74
395.90	1903.38
396.11	1915.47
396.32	1783.37
396.53	1937.58
396.74	1923.86
396.95	2034.25
397.16	1776.82
397.37	1727.46
397.58	2044.28
397.79	1903.79
398.00	1857.71
398.21	1823.72
398.42	1948.64
398.63	2205.66
398.84	1824.74
399.05	1790.74
399.26	2093.43
399.47	2022.57
399.68	1671.35
399.89	1771.29
400.10	1805.49
400.31	1868.36
400.52	1892.73
400.73	1836.62
400.94	1811.02
401.15	2039.78
401.36	1880.24
401.57	1914.03
401.78	2117.19
401.99	2067.63
402.20	1756.34
402.41	1942.50
402.62	2118.01
402.83	1893.55
403.04	1790.95
403.25	1988.17
403.46	2003.32
403.67	2187.44
403.88	1928.78
404.09	1914.44
404.30	1960.93
404.51	1929.60
404.72	1836.00
404.93	1970.97
405.14	1867.13
405.35	1921.61
405.56	1827.40
405.77	1803.24
405.98	1960.11
406.19	1928.16
406.40	1810.20
406.61	1875.94
406.82	1970.76
407.03	2283.69
407.24	1836.62
407.45	1916.08
407.66	2028.92
407.87	2100.60
408.08	1899.29
408.29	1918.13
408.49	2036.91
408.70	1918.13
408.91	1855.66
409.12	1903.59
409.33	1797.50
409.54	2080.33
409.75	1788.29
409.96	1833.55
410.17	2052.06
410.38	1911.57
410.59	1816.14
410.80	1920.18
411.01	1914.85
411.22	1929.19
411.43	1859.35
411.64	1777.64
411.85	1822.69
412.06	1814.30
412.27	1654.76
412.47	1813.68
412.68	1941.27
412.89	2024.42
413.10	1853.82
413.31	1744.87
413.52	2187.44
413.73	2153.64
413.94	1795.25
414.15	1937.17
414.36	1874.51
414.57	1837.23
414.78	1769.44
414.99	1974.04
415.19	2362.54
415.40	2414.15
415.61	2505.69
415.82	2354.14
416.03	2395.10
416.24	2244.37
416.45	2030.15
416.66	1893.55
416.87	1806.72
417.08	2025.24
417.29	1822.90
417.50	1943.73
417.70	2113.09
417.91	2094.87
418.12	1973.01
418.33	2027.08
418.54	2214.47
418.75	2335.09
418.96	2382.61
419.17	2528.22
419.38	2979.79
419.59	2930.64
419.79	2816.78
420.00	2622.83
420.21	2826.61
420.42	2301.51
420.63	2043.46
420.84	2025.65
421.05	1982.64
421.26	1970.76
421.47	1761.46
421.67	2093.43
421.88	1862.63
422.09	1828.84
422.30	2058.00
422.51	1926.32
422.72	2233.51
422.93	2085.65
423.14	1897.24
423.35	1754.09
423.55	1752.04
423.76	1832.52
423.97	1843.38
424.18	1715.99
424.39	1925.71
424.60	2054.52
424.81	1880.44
425.02	2087.08
425.22	2199.72
425.43	2212.83
425.64	2382.81
425.85	2366.43
426.06	2658.88
426.27	2495.65
426.48	2402.27
426.68	2302.94
426.89	2455.72
427.10	2523.10
427.31	2151.39
427.52	1939.84
427.73	2169.62
427.94	2089.13
428.14	1986.73
428.35	1894.17
428.56	2113.91
428.77	2068.65
428.98	1936.97
429.19	1952.33
429.40	2060.05
429.60	2096.71
429.81	2147.30
430.02	2096.92
430.23	2057.59
430.44	2089.95
430.65	1884.34
430.85	1893.55
431.06	2018.48
431.27	1764.53
431.48	1825.76
431.69	1877.37
431.90	1948.23
432.10	1970.76
432.31	1968.71
432.52	2031.79
432.73	2572.86
432.94	2530.47
433.15	2360.08
433.35	2182.73
433.56	2362.33
433.77	2224.91
433.98	2591.29
434.19	2795.27
434.40	3057.82
434.60	3027.31
434.81	2923.27
435.02	2571.43
435.23	2381.79
435.44	2258.70
435.64	1956.63
435.85	1910.14
436.06	1966.05
436.27	1981.82
436.48	1899.49
436.68	1950.49
436.89	2318.71
437.10	2225.73
437.31	2092.00
437.52	2137.46
437.73	2133.78
437.93	2109.82
438.14	2002.30
438.35	1787.67
438.56	1927.96
438.77	1927.55
438.97	2000.25
439.18	1881.67
439.39	2287.79
439.60	2073.36
439.80	2017.04
440.01	2136.85
440.22	2056.37
440.43	2132.96
440.64	1853.82
440.84	1957.24
441.05	1847.68
441.26	2305.60
441.47	1905.02
441.68	1977.52
441.88	2290.45
442.09	2425.00
442.30	2648.23
442.51	2600.31
442.71	2490.53
442.92	2407.18
443.13	2118.42
443.34	2002.71
443.55	2019.71
443.75	2097.32
443.96	1843.58
444.17	1774.97
444.38	2069.68
444.58	1815.93
444.79	1893.35
445.00	1842.35
445.21	1911.78
445.41	1908.30
445.62	1632.44
445.83	1911.78
446.04	1954.38
446.24	1763.51
446.45	1655.78
446.66	1810.40
446.87	1969.74
447.07	1885.97
447.28	2046.74
447.49	1922.84
447.70	2111.25
447.90	2128.45
448.11	1903.18
448.32	1971.17
448.53	2120.06
448.73	2133.57
448.94	1873.48
449.15	1953.35
449.36	1955.61
449.56	1979.16
449.77	1831.91
449.98	1742.21
450.19	1945.78
450.39	2021.75
450.60	2031.38
450.81	2034.45
451.02	2067.63
451.22	2233.51
451.43	1910.75
451.64	1908.91
451.84	1956.22
452.05	2152.82
452.26	1925.09
452.47	1870.82
452.67	1883.52
452.88	2134.60
453.09	1821.67
453.30	1771.70
453.50	2054.73
453.71	2239.86
453.92	2000.66
454.12	2154.05
454.33	2069.68
454.54	2096.71
454.75	1901.74
454.95	1861.40
455.16	2021.55
455.37	2070.29
455.57	1899.49
455.78	1874.10
455.99	1921.20
456.19	1965.03
456.40	1801.39
456.61	1896.42
456.82	1945.98
457.02	2115.35
457.23	2096.92
457.44	2230.44
457.64	2094.66
457.85	2191.94
458.06	2029.33
458.26	2182.11
458.47	2057.18
458.68	2210.78
458.89	1957.24
459.09	2121.49
459.30	2320.96
459.51	2047.35
459.71	1795.04
459.92	1874.30
460.13	2218.56
460.33	2466.98
460.54	2085.04
460.75	2118.62
460.95	2072.54
461.16	2103.67
461.37	1922.22
461.57	1945.78
461.78	2016.63
461.99	1879.22
462.19	2093.43
462.40	1823.92
462.61	2414.56
462.81	2088.31
463.02	1792.18
463.23	1838.26
463.43	2042.03
463.64	1877.99
463.85	2662.56
464.05	1810.81
464.26	2351.48
464.47	2124.15
464.67	2000.05
464.88	1987.76
465.09	2002.09
465.29	2166.55
465.50	2192.35
465.71	2065.17
465.91	2033.63
466.12	2016.23
466.33	1953.97
466.53	1899.49
466.74	2147.91
466.94	1950.69
467.15	1899.29
467.36	2036.30
467.56	1861.19
467.77	1960.11
467.98	1861.60
468.18	1772.31
468.39	1877.37
468.60	2184.36
468.80	1894.58
469.01	1806.10
469.21	1999.43
469.42	2097.73
469.63	1913.21
469.83	1829.66
470.04	2098.55
470.25	2180.88
470.45	1931.85
470.66	1826.99
470.86	1978.34
471.07	1923.25
471.28	1927.96
471.48	2011.72
471.69	1997.38
471.90	2581.87
472.10	2108.59
472.31	2161.84
472.51	2159.17
472.72	2214.67
472.93	2159.99
473.13	2324.85
473.34	2332.64
473.54	2289.63
473.75	2130.50
473.96	2154.26
474.16	2029.54
474.37	2070.91
474.57	1927.55
474.78	1859.35
474.99	2024.01
475.19	2001.28
475.40	1828.22
475.60	1890.89
475.81	2357.21
476.02	2212.63
476.22	2205.05
476.43	2301.30
476.63	2114.73
476.84	2197.68
477.05	1783.99
477.25	1887.41
477.46	2368.89
477.66	1982.84
477.87	1779.28
478.08	1885.56
478.28	2064.97
478.49	1927.75
478.69	1802.62
478.90	1829.25
479.10	1997.18
479.31	2126.41
479.52	1927.14
479.72	2257.07
479.93	2594.57
480.13	2621.20
480.34	2638.19
480.54	2695.13
480.75	2353.53
480.96	2367.25
481.16	2015.82
481.37	2098.96
481.57	2181.91
481.78	2149.96
481.98	2171.05
482.19	2016.23
482.40	2261.98
482.60	2067.42
482.81	1974.65
483.01	1826.79
483.22	2036.09
483.42	2046.74
483.63	1959.50
483.83	1981.82
484.04	2035.07
484.24	2236.18
484.45	2159.38
484.66	1976.09
484.86	2171.05
485.07	1955.20
485.27	1950.69
485.48	1880.85
485.68	2132.55
485.89	1873.28
486.09	1976.29
486.30	1891.09
486.50	1990.42
486.71	1995.13
486.91	1938.61
487.12	2365.81
487.33	2971.19
487.53	3157.76
487.74	3055.57
487.94	2928.60
488.15	2630.41
488.35	2412.30
488.56	2176.99
488.76	2105.11
488.97	2130.91
489.17	2190.92
489.38	1998.61
489.58	2029.54
489.79	2136.44
489.99	2062.71
490.20	1967.07
490.40	2006.19
490.61	2050.22
490.81	1879.01
491.02	1902.15
491.22	1977.11
491.43	2055.96
491.63	1958.06
491.84	2004.55
492.04	1773.34
492.25	2012.74
492.45	1951.10
492.66	1932.87
492.86	1853.82
493.07	2011.11
493.27	2306.22
493.48	1797.30
493.68	1914.24
493.89	1922.22
494.09	2037.93
494.30	1875.32
494.50	2122.11
494.71	1991.85
494.91	1793.20
495.12	1852.59
495.32	1950.28
495.53	1949.05
495.73	1891.50
495.94	2063.12
496.14	1982.64
496.35	2480.50
496.55	2147.70
496.76	1984.69
496.96	2023.39
497.17	2004.76
497.37	2043.46
497.58	1884.95
497.78	1819.42
497.98	1939.43
498.19	1951.10
498.39	1880.44
498.60	1916.69
498.80	1743.44
499.01	2037.11
499.21	1836.21
499.42	1905.84
499.62	1896.83
499.83	2206.69
500.03	1820.23
500.24	2071.32
500.44	2261.78
500.64	2309.29
500.85	2089.54
501.05	2165.93
501.26	1896.01
501.46	2222.25
501.67	1921.20
501.87	1828.02
502.08	1889.05
502.28	1946.39
502.48	1980.39
502.69	2001.48
502.89	1812.04
503.10	1867.13
503.30	1894.37
503.51	1900.31
503.71	1828.63
503.92	2025.03
504.12	1945.37
504.32	1888.02
504.53	2034.45
504.73	2061.08
504.94	2003.12
505.14	2097.32
505.35	2116.17
505.55	2132.35
505.75	2076.03
505.96	2163.88
506.16	2362.13
506.37	1990.63
506.57	1914.44
506.78	1994.31
506.98	2144.84
507.18	1829.04
507.39	1850.95
507.59	1939.63
507.80	1881.47
508.00	2005.37
508.20	2075.82
508.41	1940.86
508.61	2118.83
508.82	2082.99
509.02	1997.79
509.22	1819.42
509.43	1837.64
509.63	1894.78
509.84	1894.99
510.04	1791.36
510.24	2141.97
510.45	2030.77
510.65	1806.10
510.86	1918.54
511.06	1840.10
511.26	2049.20
511.47	1978.54
511.67	1838.05
511.88	1999.02
512.08	2078.89
512.28	1801.60
512.49	1976.29
512.69	1970.56
512.90	1970.97
513.10	1852.39
513.30	1952.33
513.51	2062.51
513.71	2221.43
513.91	2070.50
514.12	2075.82
514.32	2163.68
514.53	1954.99
514.73	2000.46
514.93	1909.12
515.14	1969.12
515.34	2145.66
515.54	1941.88
515.75	2003.73
515.95	2068.45
516.15	2139.72
516.36	1987.76
516.56	2005.17
516.77	1725.41
516.97	2010.90
517.17	1883.93
517.38	1981.00
517.58	2131.73
517.78	1928.16
517.99	1960.11
518.19	1971.78
518.39	2167.57
518.60	1962.77
518.80	1906.04
519.00	2008.65
519.21	1942.50
519.41	2184.36
519.61	1848.50
519.82	1960.93
520.02	1968.30
520.22	1955.61
520.43	1893.96
520.63	1884.75
520.83	1868.36
521.04	1745.48
521.24	1934.51
521.44	1880.24
521.65	1832.52
521.85	2024.62
522.05	1818.80
522.26	1870.41
522.46	2149.55
522.66	2012.54
522.87	1850.54
523.07	2028.92
523.27	1866.93
523.48	2118.83
523.68	1923.66
523.88	1922.43
524.09	2073.16
524.29	1971.78
524.49	1733.81
524.70	2013.97
524.90	2116.99
525.10	2003.53
525.31	1794.23
525.51	1803.44
525.71	2022.98
525.91	2031.59
526.12	1843.99
526.32	1779.28
526.52	1893.96
526.73	1845.83
526.93	1920.79
527.13	1764.53
527.34	1920.18
527.54	1941.47
527.74	1855.87
527.94	1803.85
528.15	1826.38
528.35	1932.67
528.55	1976.70
528.76	1920.99
528.96	1756.13
529.16	2081.56
529.36	1998.61
529.57	1795.86
529.77	2096.10
529.97	1840.10
530.18	1964.41
530.38	1852.80
530.58	1997.59
530.78	1925.30
530.99	1846.45
531.19	1977.11
531.39	1873.07
531.60	1942.91
531.80	1846.04
532.00	2004.76
532.20	1941.47
532.41	1854.03
532.61	1873.69
532.81	1878.60
533.01	1916.49
533.22	2004.14
533.42	2022.37
533.62	1723.78
533.82	2099.78
534.03	1922.02
534.23	1973.01
534.43	1849.32
534.63	1899.70
534.84	1962.77
535.04	1964.82
535.24	1960.93
535.44	2277.34
535.65	1894.37
535.85	1882.29
536.05	1856.69
536.25	1951.71
536.46	1855.46
536.66	2070.70
536.86	1958.06
537.06	2056.98
537.27	2097.73
537.47	2001.89
537.67	1859.35
537.87	2103.26
538.08	1917.92
538.28	1792.18
538.48	1817.98
538.68	1914.44
538.88	2041.42
539.09	1765.76
539.29	1896.21
539.49	2066.20
539.69	1981.00
539.90	1968.30
540.10	1823.10
540.30	2133.37
540.50	1860.17
540.70	1780.91
540.91	1899.49
541.11	2078.69
541.31	2128.25
541.51	1961.95
541.72	1966.25
541.92	1989.19
542.12	1890.07
542.32	1898.67
542.52	1874.30
542.73	1878.60
542.93	2029.54
543.13	1892.32
543.33	1976.90
543.53	2085.65
543.74	2074.80
543.94	1891.30
544.14	2034.45
544.34	2127.02
544.54	2003.32
544.75	2021.75
544.95	2164.09
545.15	2118.01
545.35	2200.95
545.55	2029.95
545.75	1917.92
545.96	2251.74
546.16	1907.68
546.36	1937.58
546.56	1937.79
546.76	2095.07
546.97	2170.44
547.17	1926.11
547.37	2005.17
547.57	1888.02
547.77	2072.95
547.97	1966.05
548.18	1971.37
548.38	1937.99
548.58	2157.13
548.78	1879.01
548.98	2021.55
549.18	2156.10
549.39	2259.32
549.59	2079.71
549.79	2010.70
549.99	2210.37
550.19	2134.19
550.39	2045.51
550.60	1953.56
550.80	2025.24
551.00	2041.21
551.20	1906.04
551.40	1908.30
551.60	2019.30
551.80	1985.51
552.01	2038.75
552.21	1919.36
552.41	1961.75
552.61	2191.94
552.81	1994.52
553.01	1842.97
553.21	2020.53
553.42	1840.10
553.62	1868.98
553.82	1839.08
554.02	2151.19
554.22	2087.29
554.42	1829.25
554.62	1971.99
554.83	2195.63
555.03	2206.28
555.23	2008.24
555.43	2283.28
555.63	2132.75
555.83	2106.13
556.03	2042.85
556.23	1840.51
556.44	2018.89
556.64	2153.44
556.84	1751.63
557.04	1919.15
557.24	2007.01
557.44	1988.58
557.64	1945.98
557.84	1829.66
558.04	1917.92
558.25	2060.26
558.45	1825.15
558.65	1948.64
558.85	1953.35
559.05	1760.84
559.25	1859.35
559.45	2001.68
559.65	2280.62
559.85	2664.61
560.05	2026.67
560.26	2077.46
560.46	2136.03
560.66	2006.80
560.86	1973.01
561.06	1885.77
561.26	2179.45
561.46	2031.58
561.66	1900.31
561.86	2016.43
562.06	1876.55
562.26	1916.08
562.47	1976.29
562.67	1794.43
562.87	2021.14
563.07	1774.36
563.27	1918.33
563.47	1960.32
563.67	1916.08
563.87	2036.30
564.07	1864.06
564.27	1950.49
564.47	1995.13
564.67	2036.70
564.87	1887.61
565.08	2021.96
565.28	1925.09
565.48	2039.57
565.68	1985.71
565.88	2006.39
566.08	2202.80
566.28	1980.59
566.48	1803.65
566.68	1915.26
566.88	1939.02
567.08	2068.45
567.28	1910.96
567.48	1916.90
567.68	2012.54
567.88	1804.47
568.08	2003.12
568.28	2065.79
568.48	1935.33
568.68	2106.34
568.89	1948.03
569.09	1771.90
569.29	2056.37
569.49	2070.29
569.69	1847.27
569.89	1839.90
570.09	1744.05
570.29	1876.35
570.49	1779.07
570.69	1863.65
570.89	2021.35
571.09	2195.01
571.29	1784.19
571.49	2068.45
571.69	1975.27
571.89	2011.72
572.09	1855.05
572.29	1893.96
572.49	2053.09
572.69	2056.57
572.89	1915.26
573.09	1739.14
573.29	1962.16
573.49	1974.04
573.69	1950.90
573.89	2028.10
574.09	1921.61
574.29	2135.83
574.49	1922.43
574.69	1882.90
574.89	1834.37
575.09	1842.76
575.29	1843.79
575.49	1937.17
575.69	1986.73
575.89	1821.67
576.09	1959.29
576.29	1951.10
576.49	1838.26
576.69	1954.38
576.89	1882.29
577.09	1944.34
577.29	1776.41
577.49	2216.52
577.69	1886.59
577.89	2019.71
578.09	1977.93
578.29	1780.71
578.49	1945.16
578.69	1870.21
578.89	2086.47
579.09	1957.86
579.29	1850.13
579.49	2067.63
579.69	1876.14
579.89	2176.38
580.09	1750.81
580.29	1790.13
580.49	1852.39
580.69	1842.56
580.89	1879.83
581.09	1914.65
581.29	1896.42
581.49	1907.48
581.69	1811.84
581.89	1846.65
582.09	1840.51
582.28	1864.06
582.48	2014.38
582.68	2070.70
582.88	2126.20
583.08	1945.78
583.28	1932.26
583.48	1926.52
583.68	1865.09
583.88	1944.34
584.08	1942.91
584.28	1943.11
584.48	2217.13
584.68	2016.43
584.88	1921.81
585.08	2076.85
585.28	2073.98
585.48	2141.15
585.68	2022.16
585.87	2051.25
586.07	2031.58
586.27	1986.94
586.47	2031.18
586.67	1936.76
586.87	1982.84
587.07	1928.57
587.27	1862.83
587.47	1995.95
587.67	2217.95
587.87	2366.84
588.07	2092.20
588.27	2029.33
588.46	2207.30
588.66	2178.83
588.86	2027.08
589.06	2104.70
589.26	2122.72
589.46	2090.36
589.66	1865.70
589.86	1875.32
590.06	1967.28
590.26	2089.95
590.46	1985.10
590.66	2141.77
590.85	2014.79
591.05	2131.32
591.25	1947.00
591.45	1995.75
591.65	2069.47
591.85	2049.61
592.05	1979.36
592.25	2112.48
592.45	2141.15
592.64	1988.58
592.84	1993.70
593.04	1890.89
593.24	2302.33
593.44	1913.83
593.64	2021.35
593.84	2012.95
594.04	1916.08
594.24	2179.65
594.43	1874.51
594.63	1949.26
