SpectraSuite Data File
++++++++++++++++++++++++++++++++++++
Date: Thu Mar 30 14:32:45 PDT 2017
User: UCSD _CER
Dark Spectrum Present: No
Reference Spectrum Present: No
Number of Sampled Component Spectra: 1
Spectrometers: USB4C00073
Integration Time (usec): 380000 (USB4C00073)
Spectra Averaged: 10 (USB4C00073)
Boxcar Smoothing: 0 (USB4C00073)
Correct for Electrical Dark: No (USB4C00073)
Strobe/Lamp Enabled: No (USB4C00073)
Correct for Detector Non-linearity: No (USB4C00073)
Correct for Stray Light: No (USB4C00073)
Number of Pixels in Processed Spectrum: 3648
>>>>>Begin Processed Spectral Data<<<<<
345.37	1232.06
345.58	1232.06
345.80	1232.06
346.01	1247.42
346.22	1255.40
346.43	2052.47
346.65	1940.45
346.86	2479.68
347.07	2394.69
347.28	1855.05
347.50	1833.34
347.71	2153.64
347.92	1893.35
348.13	1823.72
348.35	1840.10
348.56	2164.29
348.77	1953.15
348.98	1837.85
349.20	1689.16
349.41	2170.85
349.62	2297.41
349.83	1924.27
350.05	1837.23
350.26	2218.56
350.47	2366.84
350.68	1849.11
350.90	1752.86
351.11	2420.08
351.32	2370.73
351.53	1896.21
351.75	1785.42
351.96	2224.71
352.17	2155.08
352.38	1914.24
352.60	1927.75
352.81	2160.61
353.02	2458.79
353.23	1813.07
353.44	1853.21
353.66	2081.15
353.87	2078.48
354.08	1929.80
354.29	1830.06
354.51	2036.30
354.72	2090.98
354.93	1805.90
355.14	1813.89
355.35	1869.18
355.57	2295.77
355.78	1850.95
355.99	1902.97
356.20	2118.83
356.42	2077.46
356.63	1916.28
356.84	1820.03
357.05	2293.32
357.26	2532.72
357.48	1967.28
357.69	1890.07
357.90	2242.73
358.11	2099.78
358.32	1852.59
358.54	1894.58
358.75	2099.99
358.96	2273.25
359.17	1845.42
359.38	1878.40
359.60	2285.33
359.81	2145.25
360.02	1878.60
360.23	1786.24
360.44	2034.45
360.66	2305.60
360.87	1824.74
361.08	1789.31
361.29	2219.79
361.50	2158.76
361.72	1829.25
361.93	1904.00
362.14	2179.04
362.35	1911.37
362.56	2003.32
362.77	1710.87
362.99	2262.60
363.20	2139.51
363.41	1920.38
363.62	1703.91
363.83	2255.02
364.05	2303.96
364.26	1775.38
364.47	1820.85
364.68	2352.91
364.89	1998.82
365.10	1774.36
365.32	1877.37
365.53	1990.63
365.74	2065.58
365.95	1839.49
366.16	1702.68
366.37	2133.78
366.59	2092.41
366.80	1854.44
367.01	1732.79
367.22	2502.82
367.43	2632.66
367.64	1940.86
367.86	1853.62
368.07	2226.35
368.28	2372.16
368.49	1761.46
368.70	1876.14
368.91	2104.29
369.12	2131.94
369.34	1763.71
369.55	1745.48
369.76	2176.79
369.97	2072.13
370.18	1733.40
370.39	1825.76
370.60	1909.32
370.82	1984.07
371.03	1875.94
371.24	1793.61
371.45	2302.94
371.66	2260.96
371.87	1819.62
372.08	1866.11
372.30	1996.16
372.51	2307.86
372.72	1990.83
372.93	1844.61
373.14	2447.53
373.35	2027.28
373.56	1797.30
373.78	1863.04
373.99	2303.76
374.20	2686.32
374.41	1818.80
374.62	1818.60
374.83	2395.92
375.04	2111.05
375.25	1853.62
375.47	1890.68
375.68	2062.51
375.89	2298.03
376.10	1873.69
376.31	1937.17
376.52	2244.37
376.73	2160.61
376.94	1909.53
377.15	1784.80
377.37	2153.85
377.58	2118.62
377.79	1750.40
378.00	1781.32
378.21	2195.01
378.42	2251.95
378.63	1889.46
378.84	1947.21
379.05	2339.80
379.27	2177.81
379.48	1945.57
379.69	1795.25
379.90	2374.41
380.11	1831.29
380.32	1859.15
380.53	1965.03
380.74	2386.09
380.95	2182.32
381.16	1901.13
381.37	1896.01
381.59	2412.10
381.80	2295.77
382.01	1815.52
382.22	1761.87
382.43	2221.23
382.64	2132.96
382.85	1784.80
383.06	1926.11
383.27	2243.75
383.48	2116.99
383.69	1861.60
383.91	1781.53
384.12	2260.96
384.33	2271.61
384.54	1892.53
384.75	1799.35
384.96	2716.43
385.17	2350.04
385.38	1878.40
385.59	1837.44
385.80	2297.82
386.01	2430.94
386.22	1952.12
386.43	1880.44
386.64	2530.88
386.86	2151.60
387.07	1978.13
387.28	1790.33
387.49	2058.00
387.70	2408.82
387.91	1991.65
388.12	1855.05
388.33	2253.38
388.54	2052.88
388.75	1804.06
388.96	1943.93
389.17	2044.08
389.38	2086.27
389.59	1918.95
389.80	1926.52
390.01	2131.73
390.22	2071.52
390.43	1962.36
390.64	1760.43
390.86	2219.59
391.07	2350.25
391.28	1835.18
391.49	1894.17
391.70	1930.01
391.91	2040.19
392.12	1846.45
392.33	1921.81
392.54	2170.44
392.75	2096.51
392.96	1943.73
393.17	1823.51
393.38	2565.29
393.59	2358.44
393.80	1744.25
394.01	1868.77
394.22	2108.59
394.43	2445.07
394.64	1753.27
394.85	1955.20
395.06	2131.94
395.27	2172.69
395.48	1849.11
395.69	1753.47
395.90	2092.61
396.11	2147.09
396.32	1849.93
396.53	1945.37
396.74	2111.87
396.95	2340.62
397.16	1811.22
397.37	1728.08
397.58	2305.60
397.79	2156.31
398.00	1898.67
398.21	1870.00
398.42	2182.52
398.63	2521.87
398.84	1857.51
399.05	1804.26
399.26	2407.59
399.47	2226.76
399.68	1718.25
399.89	1782.55
400.10	1957.65
400.31	2071.73
400.52	1925.50
400.73	1820.85
400.94	1894.99
401.15	2221.23
401.36	1887.82
401.57	1889.66
401.78	2349.43
401.99	2326.49
402.20	1782.35
402.41	2014.59
402.62	2412.71
402.83	2085.24
403.04	1804.87
403.25	2045.31
403.46	2192.56
403.67	2356.80
403.88	1849.32
404.09	1812.25
404.30	2008.44
404.51	2005.17
404.72	1796.68
404.93	1973.22
405.14	1998.82
405.35	2131.12
405.56	1878.81
405.77	1811.63
405.98	2176.58
406.19	2159.38
406.40	1798.53
406.61	1827.40
406.82	2036.91
407.03	2604.61
407.24	1788.90
407.45	1881.06
407.66	2217.54
407.87	2302.94
408.08	1927.34
408.29	1949.67
408.49	2259.93
408.70	2117.80
408.91	1824.94
409.12	1963.59
409.33	1976.90
409.54	2357.21
409.75	1806.72
409.96	1878.81
410.17	2305.60
410.38	2146.48
410.59	1815.11
410.80	1948.44
411.01	2112.48
411.22	2113.30
411.43	1940.04
411.64	1833.55
411.85	1979.57
412.06	1996.16
412.27	1675.03
412.47	1800.37
412.68	2139.51
412.89	2263.82
413.10	1845.02
413.31	1759.21
413.52	2464.73
413.73	2470.06
413.94	1823.92
414.15	2001.48
414.36	2052.27
414.57	1994.52
414.78	1785.62
414.99	1777.84
415.19	2216.93
415.40	2153.23
415.61	1945.78
415.82	1925.30
416.03	2248.67
416.24	2201.98
416.45	1884.34
416.66	1743.64
416.87	1913.42
417.08	2244.57
417.29	1791.36
417.50	1887.20
417.70	2249.69
417.91	2190.30
418.12	1912.39
418.33	1830.68
418.54	2214.67
418.75	2316.25
418.96	1970.76
419.17	1895.80
419.38	2353.12
419.59	2175.35
419.79	1944.96
420.00	1838.26
420.21	2609.93
420.42	2150.57
420.63	1831.50
420.84	1873.28
421.05	2125.79
421.26	2146.68
421.47	1787.88
421.67	2243.75
421.88	2002.09
422.09	1973.22
422.30	2107.97
422.51	1871.43
422.72	2470.26
422.93	2296.80
423.14	1921.61
423.35	1779.07
423.55	1873.69
423.76	1993.70
423.97	1879.83
424.18	1723.37
424.39	2075.21
424.60	2283.08
424.81	1863.24
425.02	1940.04
425.22	2060.46
425.43	2057.80
425.64	2042.64
425.85	1881.26
426.06	2508.56
426.27	2311.13
426.48	1962.98
426.68	1933.69
426.89	2263.42
427.10	2471.69
427.31	1891.71
427.52	1806.92
427.73	2256.45
427.94	2229.01
428.14	2038.34
428.35	1940.04
428.56	2417.22
428.77	2327.72
428.98	1896.62
429.19	1885.77
429.40	2045.92
429.60	2107.56
429.81	1988.37
430.02	1896.21
430.23	2115.76
430.44	2252.97
430.65	1820.03
430.85	1868.57
431.06	2243.55
431.27	1900.52
431.48	1870.41
431.69	1903.79
431.90	2148.93
432.10	2137.87
432.31	1951.51
432.52	1843.99
432.73	2582.28
432.94	2392.23
433.15	2037.32
433.35	1826.58
433.56	2325.26
433.77	2151.19
433.98	2090.98
434.19	1982.84
434.40	2301.30
434.60	2297.00
434.81	2125.79
435.02	2009.88
435.23	2201.57
435.44	2112.68
435.64	1814.91
435.85	1807.13
436.06	2108.38
436.27	2063.74
436.48	1788.08
436.68	1840.71
436.89	2490.33
437.10	2299.25
437.31	1987.76
437.52	2061.08
437.73	2259.11
437.93	2242.53
438.14	1975.27
438.35	1788.08
438.56	2063.53
438.77	2110.43
438.97	2070.09
439.18	1873.69
439.39	2367.86
439.60	1946.18
439.80	1824.54
440.01	1894.37
440.22	2069.27
440.43	2263.82
440.64	1839.69
440.84	1918.95
441.05	1987.35
441.26	2637.17
441.47	1973.63
441.68	1920.99
441.88	2208.73
442.09	2237.82
442.30	2206.89
442.51	2231.88
442.71	2250.10
442.92	2323.83
443.13	1985.10
443.34	1934.72
443.55	1999.23
443.75	2272.02
443.96	1885.97
444.17	1792.18
444.38	2318.51
444.58	2000.25
444.79	1979.36
445.00	1937.79
445.21	2104.49
445.41	2084.22
445.62	1705.34
445.83	1998.82
446.04	2159.38
446.24	1918.13
446.45	1705.96
446.66	1898.06
446.87	2215.29
447.07	2054.93
447.28	2096.30
447.49	1879.63
447.70	2292.91
447.90	2316.05
448.11	1940.45
448.32	2014.38
448.53	2394.08
448.73	2404.93
448.94	1881.06
449.15	2046.74
449.36	2162.45
449.56	2209.96
449.77	1887.82
449.98	1813.68
450.19	2056.78
450.39	2064.76
450.60	1955.81
450.81	1940.04
451.02	2102.65
451.22	2422.54
451.43	1842.15
451.64	1851.98
451.84	2067.42
452.05	2338.58
452.26	1897.24
452.47	1915.26
452.67	2069.27
452.88	2404.32
453.09	1800.16
453.30	1811.02
453.50	2264.85
453.71	2493.40
453.92	1979.98
454.12	2144.84
454.33	2194.60
454.54	2222.25
454.75	1931.64
454.95	1893.55
455.16	2186.00
455.37	2224.71
455.57	2009.26
455.78	1906.86
455.99	2151.60
456.19	2161.02
456.40	1853.41
456.61	1915.06
456.82	2159.58
457.02	2317.69
457.23	2057.59
457.44	2175.56
457.64	2184.77
457.85	2354.34
458.06	2007.62
458.26	1995.54
458.47	2143.81
458.68	2318.30
458.89	1906.86
459.09	2045.72
459.30	2488.69
459.51	2176.17
459.71	1776.41
459.92	1858.33
460.13	2289.63
460.33	2546.44
460.54	1970.97
460.75	1973.63
460.95	1973.83
461.16	2229.21
461.37	1919.97
461.57	1886.18
461.78	2163.06
461.99	1950.69
462.19	2161.84
462.40	1836.62
462.61	2527.40
462.81	2331.20
463.02	1866.31
463.23	1888.64
463.43	2266.90
463.64	2068.24
463.85	3175.58
464.05	1880.04
464.26	2657.85
464.47	2393.05
464.67	2067.42
464.88	2023.19
465.09	2126.82
465.29	2250.92
465.50	2149.34
465.71	2072.54
465.91	2136.85
466.12	2184.36
466.33	2000.66
466.53	1895.19
466.74	2392.85
466.94	2129.68
467.15	1957.24
467.36	2096.10
467.56	2031.59
467.77	2209.96
467.98	1951.10
468.18	1907.27
468.39	2034.86
468.60	2490.94
468.80	1922.63
469.01	1839.90
469.21	2209.76
469.42	2358.85
469.63	1895.19
469.83	1855.05
470.04	2227.58
470.25	2400.42
470.45	2034.04
470.66	1897.44
470.86	2204.84
471.07	2074.59
471.28	2017.04
471.48	2008.65
471.69	2189.07
471.90	2905.04
472.10	2072.54
472.31	2079.10
472.51	2251.13
472.72	2195.01
472.93	1977.93
473.13	2106.13
473.34	2267.10
473.54	2199.11
473.75	2005.99
473.96	2117.19
474.16	2142.18
474.37	2234.13
474.57	2028.92
474.78	1858.53
474.99	2189.48
475.19	2187.23
475.40	1929.19
475.60	1913.21
475.81	2580.85
476.02	2250.10
476.22	2176.17
476.43	2217.54
476.63	2227.78
476.84	2450.60
477.05	1845.42
477.25	1923.86
477.46	2705.37
477.66	2188.66
477.87	1889.87
478.08	1930.42
478.28	2335.91
478.49	2096.10
478.69	1888.43
478.90	1889.05
479.10	2234.33
479.31	2437.70
479.52	1998.00
479.72	2041.82
479.93	2266.08
480.13	2082.58
480.34	1937.79
480.54	2005.78
480.75	2064.56
480.96	2359.26
481.16	1879.63
481.37	2003.32
481.57	2282.87
481.78	2275.09
481.98	2141.77
482.19	2058.82
482.40	2499.34
482.60	2245.39
482.81	2077.46
483.01	1825.97
483.22	2323.83
483.42	2298.44
483.63	1995.75
483.83	1969.53
484.04	2055.96
484.24	2313.18
484.45	2074.80
484.66	1876.55
484.86	2244.37
485.07	2023.19
485.27	1974.04
485.48	1884.54
485.68	2390.80
485.89	2011.92
486.09	2056.78
486.30	1899.49
486.50	2184.57
486.71	2112.07
486.91	2003.12
487.12	2195.42
487.33	2772.95
487.53	2850.16
487.74	2422.34
487.94	2398.79
488.15	2435.85
488.35	2394.49
488.56	2073.98
488.76	1952.33
488.97	2206.48
489.17	2295.36
489.38	2054.73
489.58	1955.81
489.79	2259.32
489.99	2245.19
490.20	1946.39
490.40	2065.79
490.61	2252.77
490.81	2095.48
491.02	2000.25
491.22	1985.51
491.43	2280.00
491.63	2158.15
491.84	2082.78
492.04	1866.11
492.25	2244.16
492.45	2092.61
492.66	1891.71
492.86	1851.98
493.07	2092.61
493.27	2530.06
493.48	1801.39
493.68	1894.99
493.89	2110.64
494.09	2283.89
494.30	1957.86
494.50	2166.75
494.71	2251.54
494.91	1895.80
495.12	1955.40
495.32	1996.16
495.53	2186.00
495.73	1942.09
495.94	2137.46
496.14	1949.05
496.35	2642.49
496.55	2239.45
496.76	1976.70
496.96	2010.29
497.17	2147.30
497.37	2266.69
497.58	1965.03
497.78	1877.78
497.98	2095.48
498.19	2092.00
498.39	1918.33
498.60	1972.40
498.80	1831.70
499.01	2266.49
499.21	1838.67
499.42	2002.71
499.62	2106.34
499.83	2523.71
500.03	1836.00
500.24	2045.10
500.44	2368.07
500.64	2366.63
500.85	1938.40
501.05	2042.23
501.26	1881.06
501.46	2362.33
501.67	1892.32
501.87	1849.52
502.08	2028.92
502.28	2099.17
502.48	2022.78
502.69	2061.08
502.89	1876.14
503.10	2016.63
503.30	1998.00
503.51	1971.17
503.71	1914.85
503.92	2219.59
504.12	1989.19
504.32	1873.69
504.53	2243.34
504.73	2234.33
504.94	2062.71
505.14	2189.69
505.35	2253.99
505.55	2204.84
505.75	1951.92
505.96	2117.19
506.16	2496.68
506.37	2048.99
506.57	1893.14
506.78	2027.28
506.98	2307.24
507.18	1887.82
507.39	1849.32
507.59	1938.61
507.80	2013.15
508.00	2145.66
508.20	2160.20
508.41	1940.66
508.61	2383.63
508.82	2294.34
509.02	2081.35
509.22	1898.26
509.43	1996.56
509.63	2026.06
509.84	1981.00
510.04	1814.91
510.24	2403.70
510.45	2265.26
510.65	1855.87
510.86	1986.32
511.06	1927.14
511.26	2264.44
511.47	2103.47
511.67	1891.71
511.88	2190.51
512.08	2287.58
512.28	1846.04
512.49	2033.02
512.69	2182.73
512.90	2153.64
513.10	1933.90
513.30	2016.63
513.51	2219.59
513.71	2409.03
513.91	2014.79
514.12	1986.32
514.32	2293.72
514.53	2031.38
514.73	2029.33
514.93	1947.62
515.14	2131.32
515.34	2340.01
515.54	1908.71
515.75	1986.32
515.95	2199.31
516.15	2365.61
516.36	1963.39
516.56	1989.40
516.77	1772.31
516.97	2228.39
517.17	1952.74
517.38	2029.33
517.58	2389.37
517.78	2055.55
517.99	2026.26
518.19	1947.41
518.39	2324.65
518.60	2007.01
518.80	1838.46
519.00	1991.44
519.21	2092.20
519.41	2487.05
519.61	1889.66
519.82	2050.63
520.02	2141.97
520.22	2125.38
520.43	1932.26
520.63	1985.51
520.83	2047.76
521.04	1878.81
521.24	2055.75
521.44	1960.52
521.65	1983.66
521.85	2222.05
522.05	1908.91
522.26	1886.79
522.46	2466.98
522.66	2284.30
522.87	1987.76
523.07	2136.24
523.27	2051.25
523.48	2356.19
523.68	1983.05
523.88	2039.78
524.09	2338.99
524.29	2181.29
524.49	1831.70
524.70	2023.19
524.90	2373.19
525.10	2239.66
525.31	1859.35
525.51	1834.37
525.71	2255.63
525.91	2235.77
526.12	1964.21
526.32	1859.35
526.52	2067.83
526.73	2004.96
526.93	2038.96
527.13	1863.24
527.34	2117.60
527.54	2144.43
527.74	1971.99
527.94	1857.51
528.15	1944.75
528.35	2146.48
528.55	2055.55
528.76	1988.99
528.96	1859.35
529.16	2319.73
529.36	2058.00
529.57	1870.61
529.77	2344.92
529.97	1969.33
530.18	2049.20
530.38	1918.33
530.58	2222.87
530.78	2154.05
530.99	1953.15
531.19	2020.94
531.39	2013.36
531.60	2130.91
531.80	2022.78
532.00	2120.06
532.20	2179.24
532.41	2038.34
532.61	1913.42
532.81	1867.75
533.01	2060.05
533.22	2199.11
533.42	2085.04
533.62	1835.18
533.82	2358.85
534.03	2075.21
534.23	2069.27
534.43	1902.56
534.63	2035.68
534.84	2152.82
535.04	2048.38
535.24	1993.08
535.44	2623.24
535.65	2079.10
535.85	1928.57
536.05	1882.70
536.25	2139.51
536.46	1959.91
536.66	2112.27
536.86	2006.80
537.06	2240.89
537.27	2389.57
537.47	2002.09
537.67	1947.82
537.87	2388.55
538.08	2147.91
538.28	1864.27
538.48	1847.47
538.68	2112.48
538.88	2246.62
539.09	1814.91
539.29	1962.16
539.49	2298.03
539.69	2184.16
539.90	2050.63
540.10	1862.42
540.30	2359.67
540.50	2035.27
540.70	1805.28
540.91	1900.92
541.11	2270.38
541.31	2376.46
541.51	2009.06
541.72	2059.64
541.92	2174.94
542.12	1982.02
542.32	1995.95
542.52	1952.53
542.73	2022.16
542.93	2235.97
543.13	1943.11
543.33	2040.39
543.53	2260.75
543.74	2231.47
543.94	1910.14
544.14	2045.10
544.34	2324.44
544.54	2105.52
544.75	2027.69
544.95	2120.67
545.15	2229.21
545.35	2420.29
545.55	2091.59
545.75	1977.11
545.96	2519.21
546.16	2004.14
546.36	1988.58
546.56	1987.76
546.76	2322.81
546.97	2418.45
547.17	1984.07
547.37	2089.75
547.57	2037.73
547.77	2272.22
547.97	2058.00
548.18	2057.18
548.38	2124.15
548.58	2329.97
548.78	1899.49
548.98	1959.91
549.18	2240.27
549.39	2361.51
549.59	2028.31
549.79	1998.61
549.99	2389.57
550.19	2281.64
550.39	2117.19
550.60	1972.60
550.80	2170.23
551.00	2245.60
551.20	1954.79
551.40	1951.71
551.60	2220.82
551.80	2153.64
552.01	2067.83
552.21	1985.10
552.41	2159.58
552.61	2448.35
552.81	2051.25
553.01	1893.14
553.21	2220.41
553.42	2001.28
553.62	1967.07
553.82	1878.81
554.02	2421.11
554.22	2272.22
554.42	1881.88
554.62	2102.85
554.83	2411.89
555.03	2354.96
555.23	1977.72
555.43	2234.33
555.63	2143.40
555.83	2130.09
556.03	2048.79
556.23	1854.44
556.44	2137.87
556.64	2330.18
556.84	1713.54
557.04	1960.11
557.24	2185.39
557.44	2152.82
557.64	2042.85
557.84	1902.15
558.04	2073.57
558.25	2274.68
558.45	1872.25
558.65	2002.91
558.85	2142.38
559.05	1850.13
559.25	2016.43
559.45	2037.93
559.65	2489.31
559.85	2947.03
560.05	2001.68
560.26	2044.90
560.46	2075.21
560.66	2012.74
560.86	1915.67
561.06	1884.34
561.26	2369.70
561.46	2232.70
561.66	1979.98
561.86	2087.90
562.06	1984.48
562.26	2095.48
562.47	1994.11
562.67	1873.28
562.87	2257.68
563.07	1894.17
563.27	2021.96
563.47	2011.51
563.67	2089.95
563.87	2242.53
564.07	1898.26
564.27	1952.53
564.47	2142.38
564.67	2173.51
564.87	1916.69
565.08	2030.36
565.28	2013.15
565.48	2221.64
565.68	2053.70
565.88	2119.03
566.08	2480.09
566.28	2144.63
566.48	1860.17
566.68	2016.43
566.88	2098.96
567.08	2289.01
567.28	2025.85
567.48	2003.12
567.68	2196.45
567.88	1905.23
568.08	1978.34
568.28	2121.49
568.48	2109.61
568.68	2329.15
568.89	2025.03
569.09	1850.54
569.29	2263.01
569.49	2275.91
569.69	1906.25
569.89	1932.87
570.09	1817.37
570.29	2015.41
570.49	1878.60
570.69	1956.01
570.89	2301.92
571.09	2495.86
571.29	1872.46
571.49	2135.42
571.69	2205.05
571.89	2247.65
572.09	1961.95
572.29	2072.75
572.49	2295.16
572.69	2259.32
572.89	2008.03
573.09	1727.26
573.29	2090.77
573.49	2134.60
573.69	1967.89
573.89	2034.66
574.09	2054.93
574.29	2312.16
574.49	2022.37
574.69	1881.47
574.89	1968.51
575.09	1970.56
575.29	1888.43
575.49	1982.84
575.69	2190.30
575.89	1934.51
576.09	1988.58
576.29	1996.97
576.49	1959.09
576.69	2087.49
576.89	1927.96
577.09	1987.35
577.29	1867.13
577.49	2463.71
577.69	1924.07
577.89	2096.10
578.09	2130.71
578.29	1883.11
578.49	2002.30
578.69	1904.20
578.89	2311.95
579.09	2157.13
579.29	1903.79
579.49	2074.39
579.69	2052.06
579.89	2462.89
580.09	1784.40
580.29	1834.98
580.49	2045.10
580.69	1976.90
580.89	1922.43
581.09	1968.30
581.29	2052.27
581.49	2112.48
581.69	1914.24
581.89	1890.07
582.09	1986.53
582.28	1959.50
582.48	2097.12
582.68	2133.57
582.88	2371.55
583.08	2048.79
583.28	1990.42
583.48	1993.70
583.68	2038.96
583.88	2136.24
584.08	2012.95
584.28	2024.21
584.48	2480.29
584.68	2243.96
584.88	1958.68
585.08	2178.01
585.28	2317.48
585.48	2350.86
585.68	2052.27
585.87	2130.91
586.07	2206.48
586.27	2146.27
586.47	2062.71
586.67	1963.39
586.87	2138.49
587.07	2064.97
587.27	1886.38
587.47	2067.63
587.67	2381.99
587.87	2591.91
588.07	2021.35
588.27	1911.16
588.46	2246.21
588.66	2253.99
588.86	1946.59
589.06	2021.35
589.26	2280.21
589.46	2256.86
589.66	1890.89
589.86	1859.76
590.06	2096.71
590.26	2182.93
590.46	1924.27
590.66	2036.91
590.85	1995.13
591.05	2146.89
591.25	1875.12
591.45	1976.70
591.65	2184.98
591.85	2120.47
592.05	1906.25
592.25	2015.82
592.45	2281.44
592.64	2054.32
592.84	1991.24
593.04	1925.09
593.24	2572.66
593.44	2039.37
593.64	1980.80
593.84	2072.54
594.04	2054.52
594.24	2400.01
594.43	1966.66
594.63	1976.49
