SpectraSuite Data File
++++++++++++++++++++++++++++++++++++
Date: Thu Mar 30 14:17:14 PDT 2017
User: UCSD _CER
Dark Spectrum Present: No
Reference Spectrum Present: No
Number of Sampled Component Spectra: 1
Spectrometers: USB4C00073
Integration Time (usec): 380000 (USB4C00073)
Spectra Averaged: 10 (USB4C00073)
Boxcar Smoothing: 0 (USB4C00073)
Correct for Electrical Dark: No (USB4C00073)
Strobe/Lamp Enabled: No (USB4C00073)
Correct for Detector Non-linearity: No (USB4C00073)
Correct for Stray Light: No (USB4C00073)
Number of Pixels in Processed Spectrum: 3648
>>>>>Begin Processed Spectral Data<<<<<
345.37	1255.40
345.58	1255.40
345.80	1255.40
346.01	1236.56
346.22	1215.88
346.43	2016.02
346.65	1855.46
346.86	2383.02
347.07	2294.75
347.28	1796.07
347.50	1779.48
347.71	2105.93
347.92	1844.40
348.13	1790.74
348.35	1788.70
348.56	2112.07
348.77	1860.37
348.98	1811.22
349.20	1653.33
349.41	2098.55
349.62	2213.24
349.83	1901.95
350.05	1792.18
350.26	2142.58
350.47	2301.30
350.68	1794.02
350.90	1712.92
351.11	2344.72
351.32	2290.65
351.53	1853.62
351.75	1763.10
351.96	2157.94
352.17	2067.01
352.38	1893.14
352.60	1885.77
352.81	2111.25
353.02	2384.25
353.23	1777.02
353.44	1799.96
353.66	1999.43
353.87	2021.35
354.08	1879.63
354.29	1799.14
354.51	1963.39
354.72	2035.07
354.93	1774.16
355.14	1775.59
355.35	1791.36
355.57	2248.06
355.78	1802.83
355.99	1887.82
356.20	2090.36
356.42	2042.44
356.63	1911.57
356.84	1801.60
357.05	2227.17
357.26	2467.80
357.48	1909.12
357.69	1872.87
357.90	2148.32
358.11	2022.98
358.32	1850.75
358.54	1869.39
358.75	2017.86
358.96	2239.25
359.17	1790.74
359.38	1851.98
359.60	2185.59
359.81	2020.73
360.02	1812.66
360.23	1755.11
360.44	1945.57
360.66	2241.71
360.87	1782.35
361.08	1775.18
361.29	2134.80
361.50	2103.88
361.72	1788.70
361.93	1887.41
362.14	2093.02
362.35	1833.34
362.56	1954.58
362.77	1691.42
362.99	2175.35
363.20	2077.87
363.41	1884.54
363.62	1662.54
363.83	2175.15
364.05	2214.47
364.26	1758.80
364.47	1765.96
364.68	2257.27
364.89	1943.52
365.10	1697.97
365.32	1848.91
365.53	1952.33
365.74	1995.95
365.95	1812.04
366.16	1682.20
366.37	2087.90
366.59	2037.52
366.80	1805.28
367.01	1689.16
367.22	2396.53
367.43	2594.98
367.64	1863.45
367.86	1795.25
368.07	2148.52
368.28	2278.57
368.49	1716.81
368.70	1835.18
368.91	2022.16
369.12	2092.82
369.34	1737.50
369.55	1694.28
369.76	2088.11
369.97	2009.47
370.18	1719.06
370.39	1790.13
370.60	1855.46
370.82	1909.94
371.03	1841.12
371.24	1767.81
371.45	2211.19
371.66	2182.73
371.87	1821.26
372.08	1820.44
372.30	1936.56
372.51	2309.49
372.72	1954.17
372.93	1817.37
373.14	2358.24
373.35	1997.38
373.56	1764.12
373.78	1833.96
373.99	2224.91
374.20	2578.19
374.41	1787.26
374.62	1790.54
374.83	2325.88
375.04	2030.56
375.25	1838.46
375.47	1845.83
375.68	1996.56
375.89	2237.41
376.10	1853.21
376.31	1889.66
376.52	2143.40
376.73	2125.59
376.94	1844.61
377.15	1759.00
377.37	2096.51
377.58	2012.95
377.79	1716.40
378.00	1764.33
378.21	2140.54
378.42	2205.05
378.63	1854.64
378.84	1881.67
379.05	2270.79
379.27	2097.94
379.48	1910.75
379.69	1801.60
379.90	2309.49
380.11	1783.99
380.32	1807.74
380.53	1949.46
380.74	2350.86
380.95	2119.85
381.16	1873.28
381.37	1837.03
381.59	2321.99
381.80	2253.58
382.01	1803.44
382.22	1728.49
382.43	2155.49
382.64	2060.87
382.85	1733.40
383.06	1883.93
383.27	2191.94
383.48	2042.85
383.69	1845.83
383.91	1754.49
384.12	2209.76
384.33	2208.94
384.54	1880.24
384.75	1774.97
384.96	2634.71
385.17	2260.34
385.38	1830.88
385.59	1795.86
385.80	2194.19
386.01	2342.06
386.22	1923.04
386.43	1822.69
386.64	2487.26
386.86	2069.88
387.07	1941.06
387.28	1751.22
387.49	1996.77
387.70	2299.46
387.91	1929.19
388.12	1836.00
388.33	2149.34
388.54	2007.62
388.75	1777.02
388.96	1892.94
389.17	1962.77
389.38	2045.31
389.59	1886.38
389.80	1897.03
390.01	2058.00
390.22	2020.73
390.43	1922.02
390.64	1691.01
390.86	2165.93
391.07	2275.91
391.28	1838.46
391.49	1847.06
391.70	1851.98
391.91	1963.18
392.12	1842.97
392.33	1924.48
392.54	2121.70
392.75	2077.46
392.96	1923.04
393.17	1812.66
393.38	2481.73
393.59	2282.87
393.80	1742.41
394.01	1833.55
394.22	2046.74
394.43	2366.43
394.64	1731.35
394.85	1907.07
395.06	2073.98
395.27	2092.61
395.48	1804.26
395.69	1719.27
395.90	2031.99
396.11	2058.00
396.32	1778.46
396.53	1905.84
396.74	2072.13
396.95	2236.59
397.16	1789.72
397.37	1709.64
397.58	2253.18
397.79	2103.88
398.00	1873.28
398.21	1825.15
398.42	2102.24
398.63	2438.72
398.84	1806.51
399.05	1783.17
399.26	2300.07
399.47	2136.44
399.68	1689.16
399.89	1743.03
400.10	1888.84
400.31	2022.37
400.52	1893.35
400.73	1809.18
400.94	1831.50
401.15	2180.06
401.36	1823.10
401.57	1858.12
401.78	2280.41
401.99	2257.07
402.20	1765.14
402.41	1967.28
402.62	2377.08
402.83	2036.50
403.04	1766.99
403.25	1999.84
403.46	2121.08
403.67	2283.28
403.88	1810.61
404.09	1758.39
404.30	1949.05
404.51	1926.11
404.72	1763.92
404.93	1953.35
405.14	1936.56
405.35	2080.74
405.56	1843.79
405.77	1764.53
405.98	2100.19
406.19	2035.48
406.40	1771.90
406.61	1827.61
406.82	1961.54
407.03	2489.10
407.24	1766.99
407.45	1842.15
407.66	2129.48
407.87	2265.05
408.08	1893.76
408.29	1915.87
408.49	2167.98
408.70	2060.05
408.91	1783.99
409.12	1957.65
409.33	1934.31
409.54	2309.49
409.75	1790.33
409.96	1822.90
410.17	2230.03
410.38	2039.57
410.59	1804.06
410.80	1919.97
411.01	2047.97
411.22	2026.87
411.43	1893.14
411.64	1797.50
411.85	1922.02
412.06	1893.76
412.27	1621.79
412.47	1794.23
412.68	2075.00
412.89	2127.43
413.10	1807.33
413.31	1707.80
413.52	2407.39
413.73	2398.79
413.94	1795.25
414.15	1954.99
414.36	1998.00
414.57	1933.69
414.78	1741.18
414.99	1729.71
415.19	2122.31
415.40	2061.08
415.61	1960.73
415.82	1856.69
416.03	2148.93
416.24	2105.31
416.45	1812.45
416.66	1726.03
416.87	1849.32
417.08	2146.48
417.29	1770.26
417.50	1849.32
417.70	2139.10
417.91	2125.38
418.12	1882.90
418.33	1799.75
418.54	2147.91
418.75	2222.46
418.96	1933.90
419.17	1847.06
419.38	2247.24
419.59	2151.60
419.79	1899.49
420.00	1823.72
420.21	2566.72
420.42	2092.82
420.63	1795.04
420.84	1846.65
421.05	2061.69
421.26	2103.47
421.47	1737.70
421.67	2176.17
421.88	1922.43
422.09	1908.91
422.30	2063.74
422.51	1866.72
422.72	2373.80
422.93	2199.93
423.14	1860.58
423.35	1727.87
423.55	1811.02
423.76	1925.09
423.97	1838.26
424.18	1706.78
424.39	2022.16
424.60	2208.73
424.81	1820.85
425.02	1862.42
425.22	2030.56
425.43	2012.74
425.64	2015.41
425.85	1865.49
426.06	2423.57
426.27	2233.31
426.48	1920.18
426.68	1903.18
426.89	2215.70
427.10	2368.07
427.31	1840.92
427.52	1776.20
427.73	2185.80
427.94	2178.01
428.14	1990.42
428.35	1855.25
428.56	2353.94
428.77	2243.96
428.98	1869.80
429.19	1839.28
429.40	1994.11
429.60	2034.86
429.81	1926.52
430.02	1838.46
430.23	2069.47
430.44	2170.03
430.65	1790.54
430.85	1851.16
431.06	2183.34
431.27	1874.10
431.48	1825.76
431.69	1870.21
431.90	2064.35
432.10	2090.16
432.31	1929.39
432.52	1822.49
432.73	2500.57
432.94	2340.01
433.15	1993.49
433.35	1803.44
433.56	2266.90
433.77	2116.37
433.98	2068.04
434.19	2000.46
434.40	2266.69
434.60	2268.94
434.81	2119.44
435.02	2018.48
435.23	2145.86
435.44	2058.82
435.64	1761.25
435.85	1804.26
436.06	2038.55
436.27	1976.09
436.48	1769.65
436.68	1797.50
436.89	2404.93
437.10	2264.44
437.31	1969.12
437.52	2033.22
437.73	2183.13
437.93	2210.78
438.14	1961.54
438.35	1754.70
438.56	2059.03
438.77	2051.86
438.97	2031.99
439.18	1803.85
439.39	2283.69
439.60	1907.27
439.80	1815.11
440.01	1850.34
440.22	2001.68
440.43	2214.26
440.64	1775.79
440.84	1879.63
441.05	1899.70
441.26	2558.73
441.47	1913.42
441.68	1876.76
441.88	2191.74
442.09	2224.09
442.30	2220.20
442.51	2239.04
442.71	2235.56
442.92	2313.18
443.13	1949.67
443.34	1885.16
443.55	1986.94
443.75	2203.61
443.96	1829.25
444.17	1786.03
444.38	2227.17
444.58	1934.92
444.79	1947.21
445.00	1892.94
445.21	2053.09
445.41	1995.54
445.62	1680.97
445.83	1953.76
446.04	2098.14
446.24	1846.65
446.45	1709.03
446.66	1852.59
446.87	2143.40
447.07	1985.51
447.28	2074.39
447.49	1853.41
447.70	2230.65
447.90	2215.49
448.11	1882.70
448.32	1950.49
448.53	2335.50
448.73	2290.04
448.94	1805.08
449.15	1986.53
449.36	2100.40
449.56	2130.30
449.77	1846.04
449.98	1759.00
450.19	1965.23
450.39	2001.68
450.60	1921.20
450.81	1906.25
451.02	2048.17
451.22	2320.55
451.43	1808.36
451.64	1830.88
451.84	2008.65
452.05	2279.18
452.26	1879.22
452.47	1892.12
452.67	1995.34
452.88	2310.52
453.09	1789.92
453.30	1779.48
453.50	2210.78
453.71	2444.87
453.92	1998.61
454.12	2151.80
454.33	2126.41
454.54	2188.05
454.75	1911.57
454.95	1866.52
455.16	2166.14
455.37	2169.41
455.57	1973.63
455.78	1877.99
455.99	2074.80
456.19	2092.20
456.40	1773.13
456.61	1872.25
456.82	2095.69
457.02	2289.01
457.23	2038.55
457.44	2184.98
457.64	2178.22
457.85	2310.52
458.06	2013.77
458.26	2062.30
458.47	2113.71
458.68	2255.02
458.89	1837.85
459.09	2024.83
459.30	2437.90
459.51	2118.42
459.71	1741.39
459.92	1826.99
460.13	2206.69
460.33	2497.29
460.54	1925.09
460.75	1919.77
460.95	1921.20
461.16	2190.71
461.37	1889.25
461.57	1874.10
461.78	2086.88
461.99	1877.78
462.19	2132.96
462.40	1816.96
462.61	2684.27
462.81	2235.36
463.02	1825.97
463.23	1848.70
463.43	2164.09
463.64	1977.11
463.85	3080.96
464.05	1834.16
464.26	2625.70
464.47	2283.69
464.67	2031.59
464.88	2018.68
465.09	2064.97
465.29	2238.63
465.50	2149.14
465.71	2065.38
465.91	2094.25
466.12	2134.80
466.33	1941.68
466.53	1867.13
466.74	2336.73
466.94	2069.06
467.15	1914.85
467.36	2052.68
467.56	1919.36
467.77	2107.97
467.98	1913.62
468.18	1855.05
468.39	1987.35
468.60	2405.75
468.80	1894.17
469.01	1811.02
469.21	2179.86
469.42	2277.75
469.63	1856.28
469.83	1804.67
470.04	2189.07
470.25	2311.95
470.45	1968.51
470.66	1856.69
470.86	2137.46
471.07	1989.19
471.28	1965.85
471.48	1945.37
471.69	2096.71
471.90	2826.40
472.10	2081.76
472.31	2090.77
472.51	2231.88
472.72	2230.65
472.93	1978.13
473.13	2084.63
473.34	2235.97
473.54	2154.87
473.75	1995.95
473.96	2125.59
474.16	2073.77
474.37	2171.87
474.57	1981.61
474.78	1826.58
474.99	2153.23
475.19	2105.31
475.40	1877.17
475.60	1897.44
475.81	2528.83
476.02	2270.79
476.22	2205.66
476.43	2246.83
476.63	2201.57
476.84	2344.72
477.05	1807.74
477.25	1896.83
477.46	2635.33
477.66	2150.57
477.87	1820.85
478.08	1878.40
478.28	2242.73
478.49	2086.68
478.69	1857.30
478.90	1871.23
479.10	2146.27
479.31	2361.31
479.52	1965.44
479.72	2031.59
479.93	2214.88
480.13	2036.30
480.34	1910.75
480.54	1995.54
480.75	1981.41
480.96	2299.25
481.16	1829.45
481.37	1975.06
481.57	2197.06
481.78	2138.69
481.98	2097.94
482.19	1984.48
482.40	2411.48
482.60	2172.49
482.81	1980.59
483.01	1780.30
483.22	2253.18
483.42	2198.70
483.63	1971.99
483.83	1927.55
484.04	2034.45
484.24	2217.54
484.45	2060.46
484.66	1828.63
484.86	2174.94
485.07	1989.60
485.27	1950.08
485.48	1857.10
485.68	2304.58
485.89	1960.52
486.09	2002.71
486.30	1893.96
486.50	2072.34
486.71	2070.09
486.91	1990.42
487.12	2195.83
487.33	2779.09
487.53	2887.02
487.74	2542.55
487.94	2466.78
488.15	2453.67
488.35	2368.27
488.56	2056.78
488.76	1943.93
488.97	2153.23
489.17	2249.08
489.38	2002.91
489.58	1949.26
489.79	2234.54
489.99	2166.75
490.20	1946.18
490.40	2025.85
490.61	2162.25
490.81	1976.90
491.02	1946.18
491.22	1969.74
491.43	2176.99
491.63	2069.88
491.84	2051.25
492.04	1813.07
492.25	2167.37
492.45	2027.08
492.66	1868.77
492.86	1808.97
493.07	2044.28
493.27	2444.87
493.48	1740.36
493.68	1854.23
493.89	2045.51
494.09	2181.91
494.30	1871.64
494.50	2128.25
494.71	2163.68
494.91	1828.22
495.12	1886.59
495.32	1983.25
495.53	2095.89
495.73	1904.41
495.94	2117.39
496.14	1954.99
496.35	2624.27
496.55	2202.39
496.76	1962.77
496.96	2005.17
497.17	2113.91
497.37	2223.68
497.58	1896.21
497.78	1821.67
497.98	2020.53
498.19	2047.35
498.39	1900.31
498.60	1953.97
498.80	1799.75
499.01	2183.54
499.21	1801.80
499.42	1919.97
499.62	2038.14
499.83	2473.95
500.03	1801.19
500.24	1986.12
500.44	2322.19
500.64	2258.70
500.85	1888.23
501.05	1995.34
501.26	1826.38
501.46	2279.59
501.67	1855.05
501.87	1814.30
502.08	1923.45
502.28	2033.63
502.48	1963.59
502.69	2005.99
502.89	1819.42
503.10	1929.39
503.30	1957.24
503.51	1945.37
503.71	1866.72
503.92	2183.75
504.12	1950.49
504.32	1849.11
504.53	2152.21
504.73	2161.02
504.94	2037.32
505.14	2139.31
505.35	2173.51
505.55	2147.09
505.75	1951.51
505.96	2067.22
506.16	2443.02
506.37	1996.16
506.57	1822.28
506.78	1976.90
506.98	2244.78
507.18	1853.82
507.39	1817.78
507.59	1900.51
507.80	1963.39
508.00	2093.23
508.20	2080.94
508.41	1909.32
508.61	2283.69
508.82	2231.06
509.02	2077.46
509.22	1841.53
509.43	1904.20
509.63	1981.41
509.84	1934.31
510.04	1781.12
510.24	2309.70
510.45	2176.17
510.65	1817.78
510.86	1957.86
511.06	1898.67
511.26	2186.62
511.47	2079.92
511.67	1850.34
511.88	2177.61
512.08	2261.98
512.28	1828.02
512.49	1980.39
512.69	2096.30
512.90	2127.84
513.10	1886.38
513.30	1953.56
513.51	2162.45
513.71	2360.08
513.91	1976.09
514.12	1995.13
514.32	2189.89
514.53	1974.65
514.73	1966.66
514.93	1909.53
515.14	2056.57
515.34	2244.57
515.54	1858.33
515.75	1950.90
515.95	2165.93
516.15	2315.64
516.36	1947.41
516.56	1955.40
516.77	1730.94
516.97	2163.47
517.17	1919.77
517.38	1992.47
517.58	2298.84
517.78	2007.21
517.99	1975.27
518.19	1923.25
518.39	2263.62
518.60	1978.13
518.80	1794.84
519.00	1969.33
519.21	2060.87
519.41	2370.52
519.61	1850.95
519.82	2002.50
520.02	2063.74
520.22	2050.63
520.43	1875.94
520.63	1973.83
520.83	1945.57
521.04	1822.49
521.24	1989.19
521.44	1907.68
521.65	1899.49
521.85	2209.14
522.05	1846.24
522.26	1856.48
522.46	2406.57
522.66	2218.97
522.87	1912.39
523.07	2090.98
523.27	1994.31
523.48	2300.48
523.68	1939.02
523.88	2002.71
524.09	2266.08
524.29	2106.75
524.49	1786.03
524.70	1990.42
524.90	2287.58
525.10	2133.98
525.31	1807.54
525.51	1789.11
525.71	2193.37
525.91	2162.86
526.12	1916.49
526.32	1812.66
526.52	1976.70
526.73	1956.01
526.93	1982.23
527.13	1814.50
527.34	2040.19
527.54	2067.01
527.74	1924.68
527.94	1830.88
528.15	1908.50
528.35	2073.36
528.55	2029.54
528.76	1958.06
528.96	1833.34
529.16	2241.71
529.36	2028.72
529.57	1831.91
529.77	2283.08
529.97	1955.40
530.18	2004.76
530.38	1882.29
530.58	2131.12
530.78	2076.23
530.99	1908.50
531.19	1980.39
531.39	1952.53
531.60	2083.40
531.80	1935.33
532.00	2086.68
532.20	2071.11
532.41	1952.12
532.61	1892.12
532.81	1862.22
533.01	2013.15
533.22	2155.08
533.42	2043.05
533.62	1775.18
533.82	2276.52
534.03	2036.91
534.23	2013.36
534.43	1829.25
534.63	1988.17
534.84	2117.39
535.04	2012.54
535.24	1944.55
535.44	2529.86
535.65	1971.78
535.85	1893.14
536.05	1846.24
536.25	2053.91
536.46	1936.56
536.66	2056.37
536.86	1942.91
537.06	2172.28
537.27	2269.35
537.47	1975.06
537.67	1901.74
537.87	2289.01
538.08	2042.03
538.28	1827.81
538.48	1813.27
538.68	2046.33
538.88	2162.04
539.09	1796.07
539.29	1925.30
539.49	2229.62
539.69	2138.08
539.90	1996.16
540.10	1804.06
540.30	2272.63
540.50	1952.53
540.70	1783.78
540.91	1876.76
541.11	2175.76
541.31	2331.41
541.51	1965.64
541.72	1990.83
541.92	2093.64
542.12	1949.87
542.32	1954.58
542.52	1900.11
542.73	1957.86
542.93	2146.68
543.13	1893.14
543.33	2017.04
543.53	2211.19
543.74	2167.77
543.94	1892.32
544.14	1998.20
544.34	2275.09
544.54	2031.99
544.75	1970.56
544.95	2092.00
545.15	2176.99
545.35	2327.31
545.55	2024.01
545.75	1924.27
545.96	2452.44
546.16	1935.94
546.36	1940.45
546.56	1953.97
546.76	2258.91
546.97	2338.99
547.17	1942.70
547.37	1973.83
547.57	1994.52
547.77	2166.55
547.97	1990.83
548.18	1984.89
548.38	2030.97
548.58	2273.45
548.78	1840.71
548.98	1931.23
549.18	2171.87
549.39	2310.31
549.59	1992.88
549.79	1968.92
549.99	2340.42
550.19	2205.05
550.39	2060.87
550.60	1953.35
550.80	2121.90
551.00	2179.24
551.20	1916.90
551.40	1925.09
551.60	2150.37
551.80	2107.36
552.01	2033.02
552.21	1934.72
552.41	2099.58
552.61	2371.96
552.81	2003.73
553.01	1865.70
553.21	2160.61
553.42	1917.51
553.62	1916.90
553.82	1849.11
554.02	2305.40
554.22	2223.27
554.42	1829.45
554.62	2029.95
554.83	2304.99
555.03	2285.53
555.23	1954.79
555.43	2168.80
555.63	2078.69
555.83	2060.67
556.03	2008.85
556.23	1798.53
556.44	2067.01
556.64	2265.26
556.84	1696.13
557.04	1884.75
557.24	2080.33
557.44	2055.14
557.64	1980.59
557.84	1856.28
558.04	2002.71
558.25	2219.18
558.45	1853.00
558.65	1937.58
558.85	2091.59
559.05	1785.01
559.25	1934.10
559.45	1996.77
559.65	2418.24
559.85	2887.43
560.05	1968.92
560.26	1961.13
560.46	2009.67
560.66	1958.88
560.86	1902.97
561.06	1875.73
561.26	2296.18
561.46	2150.78
561.66	1901.54
561.86	2042.03
562.06	1948.44
562.26	2035.89
562.47	1969.74
562.67	1834.37
562.87	2167.16
563.07	1858.12
563.27	1980.80
563.47	1979.16
563.67	1994.93
563.87	2192.35
564.07	1868.16
564.27	1920.18
564.47	2057.59
564.67	2082.99
564.87	1875.94
565.08	1957.65
565.28	1957.86
565.48	2130.30
565.68	2002.71
565.88	2072.13
566.08	2432.17
566.28	2087.29
566.48	1830.27
566.68	1951.10
566.88	2033.43
567.08	2231.47
567.28	1958.68
567.48	1956.42
567.68	2147.09
567.88	1834.37
568.08	1969.53
568.28	2076.03
568.48	2039.37
568.68	2252.77
568.89	2003.12
569.09	1810.40
569.29	2211.60
569.49	2207.30
569.69	1842.15
569.89	1855.87
570.09	1771.08
570.29	1960.73
570.49	1812.66
570.69	1941.06
570.89	2221.02
571.09	2409.64
571.29	1837.03
571.49	2092.00
571.69	2120.47
571.89	2158.56
572.09	1935.94
572.29	1975.27
572.49	2162.25
572.69	2165.11
572.89	1998.00
573.09	1679.95
573.29	2022.78
573.49	2073.77
573.69	1922.84
573.89	1996.56
574.09	1962.98
574.29	2285.53
574.49	1953.56
574.69	1866.52
574.89	1881.67
575.09	1926.11
575.29	1822.08
575.49	1949.05
575.69	2080.33
575.89	1871.84
576.09	1933.28
576.29	1974.45
576.49	1890.89
576.69	1997.59
576.89	1895.80
577.09	1969.74
577.29	1817.98
577.49	2369.50
577.69	1881.06
577.89	2046.94
578.09	2066.40
578.29	1826.79
578.49	1950.90
578.69	1841.74
578.89	2240.07
579.09	2059.64
579.29	1849.93
579.49	2038.96
579.69	1981.82
579.89	2330.18
580.09	1727.67
580.29	1783.78
580.49	1978.13
580.69	1910.75
580.89	1873.07
581.09	1907.68
581.29	1982.02
581.49	2066.20
581.69	1844.20
581.89	1864.88
582.09	1915.87
582.28	1888.02
582.48	2014.18
582.68	2098.55
582.88	2287.58
583.08	2020.12
583.28	1926.73
583.48	1955.40
583.68	1954.79
583.88	2063.74
584.08	1949.26
584.28	1973.22
584.48	2406.57
584.68	2152.01
584.88	1928.37
585.08	2106.95
585.28	2226.96
585.48	2252.15
585.68	2015.00
585.87	2065.79
586.07	2148.73
586.27	2043.87
586.47	2011.51
586.67	1935.54
586.87	2063.12
587.07	1994.93
587.27	1851.36
587.47	1995.34
587.67	2335.30
587.87	2489.31
588.07	1979.57
588.27	1890.89
588.46	2179.86
588.66	2178.63
588.86	1883.93
589.06	1970.56
589.26	2188.87
589.46	2148.73
589.66	1847.27
589.86	1814.30
590.06	2013.36
590.26	2088.72
590.46	1883.72
590.66	1985.71
590.85	1952.74
591.05	2087.70
591.25	1832.11
591.45	1921.81
591.65	2127.84
591.85	2036.09
592.05	1867.54
592.25	1991.85
592.45	2186.62
592.64	2002.91
592.84	1938.81
593.04	1869.59
593.24	2490.53
593.44	1954.79
593.64	1980.39
593.84	2016.43
594.04	1982.84
594.24	2316.87
594.43	1901.74
594.63	1943.32
