SpectraSuite Data File
++++++++++++++++++++++++++++++++++++
Date: Thu Mar 30 16:10:35 PDT 2017
User: UCSD _CER
Dark Spectrum Present: No
Reference Spectrum Present: No
Number of Sampled Component Spectra: 1
Spectrometers: USB4C00073
Integration Time (usec): 250000 (USB4C00073)
Spectra Averaged: 10 (USB4C00073)
Boxcar Smoothing: 0 (USB4C00073)
Correct for Electrical Dark: No (USB4C00073)
Strobe/Lamp Enabled: No (USB4C00073)
Correct for Detector Non-linearity: No (USB4C00073)
Correct for Stray Light: No (USB4C00073)
Number of Pixels in Processed Spectrum: 3648
>>>>>Begin Processed Spectral Data<<<<<
345.37	1269.54
345.58	1269.54
345.80	1269.54
346.01	1280.39
346.22	1287.35
346.43	1968.71
346.65	1786.03
346.86	2110.84
347.07	2078.48
347.28	1801.60
347.50	1791.77
347.71	1919.15
347.92	1733.61
348.13	1800.57
348.35	1708.42
348.56	1921.20
348.77	1772.11
348.98	1799.14
349.20	1650.25
349.41	1914.44
349.62	1993.49
349.83	1841.12
350.05	1723.57
350.26	1965.64
350.47	2065.79
350.68	1772.93
350.90	1727.26
351.11	2101.42
351.32	2077.46
351.53	1816.75
351.75	1719.88
351.96	1951.71
352.17	1906.66
352.38	1856.07
352.60	1874.30
352.81	1931.85
353.02	2127.63
353.23	1759.21
353.44	1776.20
353.66	1842.97
353.87	1845.83
354.08	1874.51
354.29	1800.98
354.51	1805.69
354.72	1862.83
354.93	1763.30
355.14	1689.57
355.35	1699.61
355.57	1988.58
355.78	1769.04
355.99	1867.75
356.20	1883.11
356.42	1871.23
356.63	1878.19
356.84	1816.75
357.05	1995.34
357.26	2195.01
357.48	1866.52
357.69	1831.29
357.90	1939.84
358.11	1834.98
358.32	1801.80
358.54	1845.02
358.75	1835.18
358.96	1959.50
359.17	1784.19
359.38	1782.96
359.60	2003.94
359.81	1891.09
360.02	1808.56
360.23	1740.36
360.44	1803.65
360.66	2030.36
360.87	1722.96
361.08	1718.66
361.29	1952.94
361.50	1923.25
361.72	1773.75
361.93	1844.20
362.14	1915.26
362.35	1736.68
362.56	1886.79
362.77	1702.27
362.99	1981.61
363.20	1892.12
363.41	1841.53
363.62	1685.89
363.83	1998.82
364.05	2040.80
364.26	1674.62
364.47	1771.29
364.68	2041.82
364.89	1799.55
365.10	1719.06
365.32	1802.83
365.53	1785.62
365.74	1830.47
365.95	1812.45
366.16	1679.54
366.37	1900.11
366.59	1858.33
366.80	1782.96
367.01	1663.36
367.22	2142.18
367.43	2268.94
367.64	1796.68
367.86	1783.99
368.07	1964.41
368.28	2038.96
368.49	1732.79
368.70	1868.16
368.91	1862.63
369.12	1857.51
369.34	1717.84
369.55	1731.35
369.76	1892.73
369.97	1843.17
370.18	1726.85
370.39	1753.88
370.60	1735.45
370.82	1781.94
371.03	1779.89
371.24	1748.56
371.45	1979.16
371.66	1973.01
371.87	1793.82
372.08	1769.04
372.30	1767.60
372.51	1991.85
372.72	1877.99
372.93	1745.89
373.14	2113.30
373.35	1829.45
373.56	1740.36
373.78	1789.31
373.99	2025.85
374.20	2245.39
374.41	1809.79
374.62	1826.17
374.83	2081.97
375.04	1870.61
375.25	1809.18
375.47	1752.86
375.68	1850.75
375.89	2009.88
376.10	1800.37
376.31	1869.80
376.52	1946.80
376.73	1927.34
376.94	1825.56
377.15	1764.94
377.37	1895.80
377.58	1842.35
377.79	1682.00
378.00	1726.85
378.21	1940.04
378.42	1971.17
378.63	1800.57
378.84	1862.42
379.05	2010.70
379.27	1909.32
379.48	1905.43
379.69	1758.59
379.90	2053.09
380.11	1670.32
380.32	1797.50
380.53	1883.31
380.74	2076.64
380.95	1920.59
381.16	1772.93
381.37	1792.38
381.59	2051.86
381.80	2001.48
382.01	1745.48
382.22	1693.87
382.43	1954.38
382.64	1884.75
382.85	1739.95
383.06	1801.39
383.27	1985.51
383.48	1867.34
383.69	1833.14
383.91	1727.46
384.12	1952.94
384.33	1944.55
384.54	1793.61
384.75	1685.27
384.96	2266.49
385.17	2011.72
385.38	1773.54
385.59	1778.05
385.80	2005.17
386.01	2091.39
386.22	1876.35
386.43	1792.18
386.64	2194.81
386.86	1871.84
387.07	1893.96
387.28	1724.59
387.49	1821.05
387.70	2042.44
387.91	1889.46
388.12	1739.14
388.33	1937.17
388.54	1829.25
388.75	1754.29
388.96	1841.12
389.17	1795.86
389.38	1870.41
389.59	1882.29
389.80	1806.51
390.01	1882.49
390.22	1832.32
390.43	1894.17
390.64	1682.20
390.86	1939.43
391.07	2008.24
391.28	1796.89
391.49	1829.66
391.70	1727.26
391.91	1797.91
392.12	1812.25
392.33	1770.88
392.54	1912.60
392.75	1851.16
392.96	1883.52
393.17	1726.03
393.38	2177.20
393.59	2025.44
393.80	1708.42
394.01	1791.97
394.22	1863.04
394.43	2134.80
394.64	1738.11
394.85	1925.09
395.06	1902.97
395.27	1921.81
395.48	1782.35
395.69	1720.29
395.90	1897.65
396.11	1888.84
396.32	1761.05
396.53	1891.71
396.74	1858.33
396.95	2031.99
397.16	1753.88
397.37	1690.39
397.58	2039.37
397.79	1905.63
398.00	1829.25
398.21	1789.31
398.42	1902.56
398.63	2140.95
398.84	1791.15
399.05	1754.70
399.26	2067.01
399.47	1964.21
399.68	1634.89
399.89	1741.80
400.10	1745.48
400.31	1865.49
400.52	1819.01
400.73	1797.50
400.94	1727.05
401.15	1935.94
401.36	1789.52
401.57	1838.26
401.78	2044.90
401.99	2039.37
402.20	1732.99
402.41	1891.71
402.62	2114.53
402.83	1870.82
403.04	1745.89
403.25	1908.30
403.46	1921.40
403.67	2060.87
403.88	1781.94
404.09	1774.77
404.30	1811.84
404.51	1812.04
404.72	1709.44
404.93	1891.30
405.14	1798.94
405.35	1890.89
405.56	1802.21
405.77	1769.85
405.98	1910.96
406.19	1873.89
406.40	1752.04
406.61	1767.40
406.82	1823.51
407.03	2181.91
407.24	1683.84
407.45	1806.72
407.66	1953.15
407.87	1975.68
408.08	1839.49
408.29	1873.48
408.49	1958.47
408.70	1882.90
408.91	1782.55
409.12	1877.99
409.33	1796.68
409.54	2044.90
409.75	1760.84
409.96	1780.71
410.17	2029.54
410.38	1875.12
410.59	1770.47
410.80	1889.87
411.01	1869.18
411.22	1880.65
411.43	1851.98
411.64	1751.22
411.85	1795.86
412.06	1779.07
412.27	1644.93
412.47	1745.48
412.68	1896.83
412.89	1913.01
413.10	1755.93
413.31	1698.59
413.52	2161.43
413.73	2148.52
413.94	1754.09
414.15	1886.18
414.36	1818.19
414.57	1784.60
414.78	1692.44
414.99	1748.35
415.19	2004.55
415.40	1958.68
415.61	1960.93
415.82	1867.75
416.03	2035.07
416.24	1978.54
416.45	1804.87
416.66	1778.46
416.87	1742.62
417.08	1999.02
417.29	1721.93
417.50	1847.68
417.70	1949.26
417.91	1972.60
418.12	1825.15
418.33	1814.91
418.54	1969.53
418.75	2065.17
418.96	1961.75
419.17	1890.89
419.38	2166.55
419.59	2071.52
419.79	1923.45
420.00	1902.56
420.21	2336.12
420.42	1938.81
420.63	1814.71
420.84	1865.90
421.05	1901.13
421.26	1917.51
421.47	1739.95
421.67	2061.28
421.88	1780.91
422.09	1740.77
422.30	1953.35
422.51	1791.36
422.72	2112.48
422.93	1960.52
423.14	1800.98
423.35	1676.67
423.55	1718.66
423.76	1807.95
423.97	1836.41
424.18	1669.91
424.39	1855.66
424.60	2012.95
424.81	1793.61
425.02	1882.49
425.22	1881.06
425.43	1880.44
425.64	1971.17
425.85	1850.34
426.06	2185.80
426.27	2036.30
426.48	1903.38
426.68	1867.54
426.89	2025.65
427.10	2135.01
427.31	1831.29
427.52	1761.66
427.73	1977.93
427.94	1943.93
428.14	1888.02
428.35	1819.42
428.56	2075.62
428.77	2001.28
428.98	1870.00
429.19	1833.34
429.40	1829.04
429.60	1906.86
429.81	1923.25
430.02	1826.17
430.23	1867.54
430.44	2016.23
430.65	1771.70
430.85	1829.45
431.06	1948.64
431.27	1698.38
431.48	1780.91
431.69	1828.43
431.90	1910.55
432.10	1906.45
432.31	1842.56
432.52	1712.72
432.73	2192.96
432.94	2079.10
433.15	1930.01
433.35	1800.57
433.56	2065.79
433.77	1904.82
433.98	1899.70
434.19	1787.47
434.40	1898.47
434.60	1891.50
434.81	1779.28
435.02	1833.34
435.23	1878.60
435.44	1826.17
435.64	1691.01
435.85	1740.57
436.06	1862.42
436.27	1843.79
436.48	1680.56
436.68	1775.38
436.89	2067.63
437.10	1945.57
437.31	1820.23
437.52	1894.99
437.73	1928.16
437.93	1894.37
438.14	1841.53
438.35	1653.33
438.56	1817.37
438.77	1851.16
438.97	1927.34
439.18	1772.93
439.39	2037.73
439.60	1733.20
439.80	1692.24
440.01	1787.26
440.22	1818.60
440.43	1965.03
440.64	1723.16
440.84	1828.84
441.05	1763.30
441.26	2243.75
441.47	1839.08
441.68	1764.73
441.88	1863.65
442.09	1862.42
442.30	1925.71
442.51	1830.47
442.71	1851.57
442.92	1940.86
443.13	1744.46
443.34	1734.22
443.55	1780.30
443.75	1965.03
443.96	1736.06
444.17	1726.85
444.38	2019.71
444.58	1782.14
444.79	1852.80
445.00	1822.28
445.21	1871.84
445.41	1882.08
445.62	1629.57
445.83	1856.89
446.04	1911.37
446.24	1738.32
446.45	1647.80
446.66	1794.64
446.87	1930.82
447.07	1817.16
447.28	1978.34
447.49	1803.24
447.70	1983.05
447.90	2021.14
448.11	1789.31
448.32	1856.89
448.53	2051.45
448.73	2057.39
448.94	1821.46
449.15	1900.11
449.36	1904.82
449.56	1955.81
449.77	1798.32
449.98	1700.22
450.19	1831.50
450.39	1848.29
450.60	1860.37
450.81	1831.09
451.02	1911.98
451.22	2092.82
451.43	1767.60
451.64	1773.13
451.84	1876.14
452.05	2025.85
452.26	1836.62
452.47	1817.57
452.67	1849.52
452.88	2068.65
453.09	1743.03
453.30	1710.87
453.50	1994.52
453.71	2061.69
453.92	1788.29
454.12	1871.23
454.33	1813.27
454.54	1849.52
454.75	1753.27
454.95	1743.23
455.16	1907.27
455.37	1927.55
455.57	1818.80
455.78	1787.88
455.99	1878.40
456.19	1910.96
456.40	1729.51
456.61	1813.27
456.82	1887.00
457.02	1984.48
457.23	1837.64
457.44	1951.10
457.64	1787.06
457.85	1951.30
458.06	1798.53
458.26	1953.35
458.47	1864.06
458.68	1979.77
458.89	1713.74
459.09	1911.57
459.30	2152.01
459.51	1923.45
459.71	1709.23
459.92	1774.16
460.13	1979.16
460.33	2146.07
460.54	1797.91
460.75	1772.31
460.95	1752.65
461.16	1945.37
461.37	1789.11
461.57	1831.91
461.78	1899.90
461.99	1755.11
462.19	1996.56
462.40	1767.40
462.61	2355.57
462.81	2017.25
463.02	1764.33
463.23	1772.52
463.43	1982.02
463.64	1848.29
463.85	2731.38
464.05	1778.46
464.26	2312.57
464.47	2073.77
464.67	1940.45
464.88	1856.28
465.09	1773.95
465.29	1894.58
465.50	1924.07
465.71	1836.41
465.91	1813.27
466.12	1868.98
466.33	1862.63
466.53	1783.17
466.74	2067.01
466.94	1864.68
467.15	1820.23
467.36	1970.35
467.56	1781.12
467.77	1944.14
467.98	1816.55
468.18	1783.99
468.39	1843.38
468.60	2138.49
468.80	1840.92
469.01	1767.40
469.21	1959.70
469.42	2023.39
469.63	1797.30
469.83	1763.10
470.04	2002.50
470.25	2081.56
470.45	1866.93
470.66	1777.84
470.86	1930.82
471.07	1865.49
471.28	1896.42
471.48	1913.01
471.69	1932.05
471.90	2316.46
472.10	1789.11
472.31	1788.29
472.51	1796.07
472.72	1778.46
472.93	1726.03
473.13	1924.07
473.34	1944.14
473.54	1885.56
473.75	1850.54
473.96	1958.06
474.16	1870.61
474.37	1935.94
474.57	1862.42
474.78	1752.04
474.99	1945.16
475.19	1905.63
475.40	1795.86
475.60	1724.39
475.81	2069.47
476.02	1824.54
476.22	1801.19
476.43	1943.52
476.63	1873.69
476.84	2048.38
477.05	1685.07
477.25	1761.05
477.46	2278.16
477.66	1879.83
477.87	1695.51
478.08	1791.77
478.28	2028.31
478.49	1861.81
478.69	1745.69
478.90	1811.63
479.10	1983.87
479.31	2113.09
479.52	1850.13
479.72	1917.92
479.93	1958.47
480.13	1831.29
480.34	1778.05
480.54	1882.90
480.75	1792.38
480.96	2033.02
481.16	1754.09
481.37	1899.08
481.57	1988.58
481.78	1988.78
481.98	1981.00
482.19	1860.37
482.40	2113.30
482.60	1964.41
482.81	1894.99
483.01	1775.79
483.22	2022.57
483.42	2010.08
483.63	1928.98
483.83	1857.30
484.04	1814.71
484.24	1978.54
484.45	1862.42
484.66	1701.25
484.86	1948.23
485.07	1796.07
485.27	1859.15
485.48	1768.22
485.68	2049.40
485.89	1780.50
486.09	1889.87
486.30	1814.30
486.50	1914.03
486.71	1892.53
486.91	1848.91
487.12	1894.99
487.33	2085.24
487.53	2088.72
487.74	1854.44
487.94	1817.98
488.15	1910.96
488.35	1945.57
488.56	1824.74
488.76	1802.21
488.97	1914.24
489.17	1947.62
489.38	1823.72
489.58	1803.44
489.79	1952.33
489.99	1926.11
490.20	1846.65
490.40	1898.26
490.61	1947.82
490.81	1840.30
491.02	1818.80
491.22	1917.31
491.43	1983.25
491.63	1874.51
491.84	1942.09
492.04	1724.59
492.25	1966.05
492.45	1870.82
492.66	1781.94
492.86	1700.63
493.07	1852.18
493.27	2165.52
493.48	1692.65
493.68	1833.75
493.89	1889.05
494.09	2007.62
494.30	1804.87
494.50	2029.33
494.71	1958.88
494.91	1720.29
495.12	1811.84
495.32	1904.20
495.53	1877.37
495.73	1693.06
495.94	1806.92
496.14	1677.90
496.35	2103.88
496.55	1851.98
496.76	1815.32
496.96	1854.85
497.17	1853.62
497.37	1955.20
497.58	1796.89
497.78	1738.32
497.98	1838.46
498.19	1850.34
498.39	1866.52
498.60	1887.61
498.80	1684.25
499.01	1968.71
499.21	1766.58
499.42	1848.09
499.62	1856.89
499.83	2161.43
500.03	1704.11
500.24	1876.35
500.44	2056.78
500.64	2018.07
500.85	1814.91
501.05	1918.74
501.26	1706.57
501.46	2065.58
501.67	1746.71
501.87	1755.11
502.08	1759.82
502.28	1839.08
502.48	1897.44
502.69	1934.10
502.89	1698.79
503.10	1833.96
503.30	1856.28
503.51	1842.76
503.71	1744.66
503.92	1963.39
504.12	1884.54
504.32	1827.61
504.53	1984.28
504.73	1988.99
504.94	1939.43
505.14	2014.18
505.35	1995.95
505.55	1981.20
505.75	1883.93
505.96	1964.21
506.16	2145.66
506.37	1846.04
506.57	1771.49
506.78	1868.16
506.98	2033.63
507.18	1720.50
507.39	1751.42
507.59	1826.58
507.80	1802.42
508.00	1880.65
508.20	1983.66
508.41	1862.63
508.61	2038.75
508.82	1997.18
509.02	1942.70
509.22	1746.71
509.43	1760.23
509.63	1816.14
509.84	1840.92
510.04	1711.49
510.24	2030.36
510.45	1991.24
510.65	1726.64
510.86	1864.68
511.06	1780.09
511.26	1990.83
511.47	1910.96
511.67	1777.02
511.88	1980.39
512.08	2021.55
512.28	1736.27
512.49	1919.36
512.69	1927.14
512.90	1919.77
513.10	1789.72
513.30	1851.16
513.51	1959.50
513.71	2076.44
513.91	1896.01
514.12	1894.99
514.32	1979.77
514.53	1819.01
514.73	1897.03
514.93	1813.68
515.14	1902.77
515.34	2057.80
515.54	1855.25
515.75	1899.29
515.95	2036.91
516.15	2042.64
516.36	1926.93
516.56	1920.38
516.77	1632.85
516.97	1958.88
517.17	1815.73
517.38	1909.94
517.58	2108.38
517.78	1841.12
517.99	1910.35
518.19	1873.28
518.39	2088.11
518.60	1895.19
518.80	1820.44
519.00	1946.18
519.21	1899.29
519.41	2136.65
519.61	1795.66
519.82	1912.19
520.02	1895.40
520.22	1887.61
520.43	1861.60
520.63	1909.53
520.83	1823.31
521.04	1714.56
521.24	1929.39
521.44	1845.22
521.65	1873.48
521.85	2019.30
522.05	1816.55
522.26	1874.30
522.46	2165.32
522.66	2003.32
522.87	1840.92
523.07	2008.65
523.27	1823.31
523.48	2079.10
523.68	1861.81
523.88	1906.04
524.09	2063.12
524.29	1942.91
524.49	1722.34
524.70	1961.34
524.90	2102.65
525.10	1984.07
525.31	1771.08
525.51	1766.37
525.71	1980.80
525.91	1966.46
526.12	1798.94
526.32	1749.58
526.52	1836.41
526.73	1832.93
526.93	1922.63
527.13	1705.96
527.34	1861.81
527.54	1894.37
527.74	1820.44
527.94	1744.25
528.15	1773.75
528.35	1920.99
528.55	1934.92
528.76	1925.30
528.96	1731.97
529.16	2020.32
529.36	1980.18
529.57	1759.61
529.77	2034.25
529.97	1799.14
530.18	1928.78
530.38	1832.73
530.58	1970.76
530.78	1911.57
530.99	1807.95
531.19	1932.87
531.39	1819.42
531.60	1881.67
531.80	1811.43
532.00	1963.80
532.20	1928.57
532.41	1810.61
532.61	1775.79
532.81	1830.68
533.01	1859.56
533.22	1927.55
533.42	1950.90
533.62	1684.04
533.82	2060.87
534.03	1878.60
534.23	1895.19
534.43	1773.34
534.63	1833.34
534.84	1916.69
535.04	1884.75
535.24	1876.55
535.44	2235.77
535.65	1865.49
535.85	1791.77
536.05	1817.57
536.25	1878.81
536.46	1780.50
536.66	1988.78
536.86	1873.48
537.06	1980.80
537.27	2051.25
537.47	1940.25
537.67	1836.00
537.87	2076.85
538.08	1870.61
538.28	1760.23
538.48	1751.01
538.68	1858.33
538.88	1977.93
539.09	1742.41
539.29	1835.18
539.49	2002.91
539.69	1977.93
539.90	1917.31
540.10	1768.42
540.30	2052.27
540.50	1848.70
540.70	1745.48
540.91	1842.97
541.11	1996.56
541.31	2102.65
541.51	1911.98
541.72	1952.94
541.92	1953.35
542.12	1834.37
542.32	1860.37
542.52	1815.11
542.73	1820.64
542.93	1960.73
543.13	1834.16
543.33	1924.48
543.53	1981.61
543.74	1986.94
543.94	1854.64
544.14	1955.40
544.34	2067.42
544.54	1921.40
544.75	1958.68
544.95	2086.06
545.15	2011.11
545.35	2132.14
545.55	1969.53
545.75	1826.58
545.96	2209.76
546.16	1785.21
546.36	1835.80
546.56	1874.92
546.76	1996.97
546.97	2121.70
547.17	1854.64
547.37	1928.78
547.57	1830.88
547.77	1988.78
547.97	1914.65
548.18	1906.86
548.38	1884.13
548.58	2089.95
548.78	1853.41
548.98	1955.20
549.18	2097.32
549.39	2209.14
549.59	1982.02
549.79	1925.50
549.99	2155.08
550.19	2063.94
550.39	2009.47
550.60	1889.05
550.80	1964.62
551.00	2015.41
551.20	1833.34
551.40	1821.05
551.60	1939.43
551.80	1911.37
552.01	1980.80
552.21	1854.03
552.41	1942.91
552.61	2118.01
552.81	1895.80
553.01	1795.66
553.21	1955.81
553.42	1781.12
553.62	1818.60
553.82	1769.24
554.02	2080.33
554.22	1986.73
554.42	1761.05
554.62	1916.28
554.83	2104.90
555.03	2102.44
555.23	1901.13
555.43	2171.26
555.63	2033.22
555.83	1981.20
556.03	1913.21
556.23	1773.34
556.44	1971.58
556.64	2082.99
556.84	1652.51
557.04	1845.63
557.24	1943.11
557.44	1944.55
557.64	1903.59
557.84	1794.64
558.04	1868.98
558.25	1984.69
558.45	1811.43
558.65	1883.31
558.85	1906.86
559.05	1704.73
559.25	1846.24
559.45	1971.78
559.65	2168.18
559.85	2580.85
560.05	1941.06
560.26	1976.29
560.46	1945.78
560.66	1898.06
560.86	1864.68
561.06	1834.37
561.26	2120.88
561.46	1991.04
561.66	1844.81
561.86	1946.80
562.06	1794.64
562.26	1899.08
562.47	1921.20
562.67	1762.89
562.87	1978.54
563.07	1753.27
563.27	1892.94
563.47	1891.09
563.67	1855.05
563.87	1987.14
564.07	1846.65
564.27	1882.08
564.47	1917.10
564.67	1961.34
564.87	1821.05
565.08	1948.03
565.28	1860.37
565.48	1948.44
565.68	1932.46
565.88	1951.51
566.08	2158.97
566.28	1906.66
566.48	1731.76
566.68	1854.23
566.88	1867.75
567.08	2002.09
567.28	1867.75
567.48	1848.70
567.68	1952.12
567.88	1767.19
568.08	1928.37
568.28	2025.03
568.48	1882.29
568.68	2028.51
568.89	1908.50
569.09	1723.16
569.29	2000.87
569.49	2007.21
569.69	1776.61
569.89	1789.31
570.09	1686.09
570.29	1790.74
570.49	1742.00
570.69	1773.54
570.89	1979.57
571.09	2169.82
571.29	1747.53
571.49	1995.75
571.69	1931.23
571.89	1956.01
572.09	1791.97
572.29	1796.27
572.49	2008.03
572.69	1968.51
572.89	1861.40
573.09	1616.46
573.29	1871.84
573.49	1939.63
573.69	1884.34
573.89	1967.69
574.09	1843.99
574.29	2044.49
574.49	1813.68
574.69	1839.69
574.89	1775.38
575.09	1797.50
575.29	1779.28
575.49	1879.22
575.69	1942.09
575.89	1752.45
576.09	1886.18
576.29	1893.55
576.49	1772.31
576.69	1881.47
576.89	1808.56
577.09	1866.11
577.29	1710.46
577.49	2127.23
577.69	1823.72
577.89	1948.85
578.09	1896.62
578.29	1699.61
578.49	1856.28
578.69	1772.11
578.89	1986.73
579.09	1891.91
579.29	1768.01
579.49	1981.61
579.69	1867.13
579.89	2109.61
580.09	1706.37
580.29	1720.70
580.49	1840.92
580.69	1795.66
580.89	1857.71
581.09	1835.59
581.29	1844.20
581.49	1866.31
581.69	1762.48
581.89	1784.80
582.09	1783.17
582.28	1797.09
582.48	1973.83
582.68	2023.60
582.88	2066.40
583.08	1889.05
583.28	1843.99
583.48	1876.96
583.68	1827.61
583.88	1893.35
584.08	1912.80
584.28	1868.16
584.48	2115.96
584.68	1970.15
584.88	1833.75
585.08	2024.21
585.28	2031.79
585.48	2044.28
585.68	1906.86
585.87	1970.76
586.07	1966.05
586.27	1894.58
586.47	1966.46
586.67	1881.67
586.87	1881.26
587.07	1856.28
587.27	1748.97
587.47	1872.05
587.67	2117.19
587.87	2241.09
588.07	1939.02
588.27	1874.30
588.46	2052.88
588.66	2063.12
588.86	1923.45
589.06	1958.06
589.26	2021.35
589.46	1996.16
589.66	1770.47
589.86	1794.43
590.06	1876.76
590.26	1972.81
590.46	1846.86
590.66	1945.37
590.85	1850.95
591.05	1965.44
591.25	1786.03
591.45	1866.93
591.65	1981.82
591.85	1947.21
592.05	1831.09
592.25	1974.24
592.45	2052.27
592.64	1889.46
592.84	1895.60
593.04	1790.74
593.24	2228.60
593.44	1846.04
593.64	1932.87
593.84	1960.11
594.04	1857.30
594.24	2086.06
594.43	1804.67
594.63	1880.65
