SpectraSuite Data File
++++++++++++++++++++++++++++++++++++
Date: Thu Mar 30 16:22:33 PDT 2017
User: UCSD _CER
Dark Spectrum Present: No
Reference Spectrum Present: No
Number of Sampled Component Spectra: 1
Spectrometers: USB4C00073
Integration Time (usec): 250000 (USB4C00073)
Spectra Averaged: 10 (USB4C00073)
Boxcar Smoothing: 0 (USB4C00073)
Correct for Electrical Dark: No (USB4C00073)
Strobe/Lamp Enabled: No (USB4C00073)
Correct for Detector Non-linearity: No (USB4C00073)
Correct for Stray Light: No (USB4C00073)
Number of Pixels in Processed Spectrum: 3648
>>>>>Begin Processed Spectral Data<<<<<
345.37	1291.04
345.58	1291.04
345.80	1291.04
346.01	1227.76
346.22	1287.15
346.43	1975.68
346.65	1797.50
346.86	2127.23
347.07	2099.58
347.28	1797.30
347.50	1793.61
347.71	1920.99
347.92	1721.32
348.13	1792.79
348.35	1729.30
348.56	1913.42
348.77	1767.19
348.98	1818.39
349.20	1678.31
349.41	1928.98
349.62	1987.14
349.83	1839.90
350.05	1729.51
350.26	1944.34
350.47	2093.84
350.68	1781.12
350.90	1712.72
351.11	2087.08
351.32	2052.06
351.53	1828.84
351.75	1725.82
351.96	1924.48
352.17	1918.74
352.38	1876.35
352.60	1868.16
352.81	1924.89
353.02	2144.63
353.23	1766.99
353.44	1798.94
353.66	1822.28
353.87	1855.05
354.08	1897.44
354.29	1787.88
354.51	1856.28
354.72	1909.32
354.93	1812.66
355.14	1746.10
355.35	1758.80
355.57	2049.81
355.78	1839.49
355.99	1887.00
356.20	1945.37
356.42	1901.54
356.63	1904.41
356.84	1851.98
357.05	2035.07
357.26	2198.29
357.48	1888.02
357.69	1859.35
357.90	1955.20
358.11	1863.86
358.32	1810.61
358.54	1843.38
358.75	1880.65
358.96	2025.03
359.17	1810.40
359.38	1805.69
359.60	1977.52
359.81	1913.62
360.02	1810.61
360.23	1790.13
360.44	1829.86
360.66	2047.97
360.87	1748.15
361.08	1736.27
361.29	1930.62
361.50	1907.89
361.72	1793.00
361.93	1855.25
362.14	1917.31
362.35	1720.09
362.56	1886.38
362.77	1740.36
362.99	1981.82
363.20	1917.31
363.41	1899.49
363.62	1727.26
363.83	1992.47
364.05	2019.09
364.26	1726.03
364.47	1781.73
364.68	2062.92
364.89	1813.07
365.10	1712.72
365.32	1826.38
365.53	1817.57
365.74	1850.75
365.95	1790.13
366.16	1707.80
366.37	1910.55
366.59	1884.34
366.80	1808.77
367.01	1675.85
367.22	2171.87
367.43	2290.04
367.64	1817.78
367.86	1774.16
368.07	1994.93
368.28	2058.41
368.49	1732.38
368.70	1838.87
368.91	1862.42
369.12	1892.94
369.34	1722.96
369.55	1750.19
369.76	1920.38
369.97	1844.20
370.18	1726.85
370.39	1730.74
370.60	1757.16
370.82	1772.72
371.03	1801.19
371.24	1757.57
371.45	1986.53
371.66	1945.37
371.87	1782.35
372.08	1747.94
372.30	1776.20
372.51	2009.06
372.72	1863.04
372.93	1770.88
373.14	2098.96
373.35	1807.54
373.56	1722.34
373.78	1807.13
373.99	2000.46
374.20	2270.79
374.41	1791.77
374.62	1820.44
374.83	2118.42
375.04	1866.72
375.25	1819.42
375.47	1757.36
375.68	1850.95
375.89	2017.66
376.10	1822.49
376.31	1907.48
376.52	1951.92
376.73	1977.52
376.94	1806.72
377.15	1793.41
377.37	1906.45
377.58	1862.01
377.79	1683.43
378.00	1721.93
378.21	1939.22
378.42	1978.13
378.63	1815.32
378.84	1899.70
379.05	2018.89
379.27	1908.91
379.48	1916.69
379.69	1744.05
379.90	2040.19
380.11	1663.97
380.32	1816.96
380.53	1892.32
380.74	2060.46
380.95	1915.67
381.16	1793.61
381.37	1782.76
381.59	2087.70
381.80	2032.20
382.01	1772.72
382.22	1672.37
382.43	1984.48
382.64	1959.09
382.85	1766.58
383.06	1843.17
383.27	2025.03
383.48	1886.79
383.69	1868.77
383.91	1740.16
384.12	1989.40
384.33	1950.08
384.54	1791.56
384.75	1674.83
384.96	2255.22
385.17	2041.82
385.38	1784.19
385.59	1789.31
385.80	1999.43
386.01	2092.20
386.22	1878.19
386.43	1825.97
386.64	2173.10
386.86	1882.08
387.07	1908.50
387.28	1704.52
387.49	1841.12
387.70	2076.85
387.91	1870.61
388.12	1738.52
388.33	1967.28
388.54	1836.62
388.75	1790.33
388.96	1854.44
389.17	1853.62
389.38	1885.16
389.59	1863.86
389.80	1812.45
390.01	1908.09
390.22	1863.65
390.43	1916.90
390.64	1672.58
390.86	1930.21
391.07	2000.46
391.28	1812.45
391.49	1837.64
391.70	1754.70
391.91	1808.97
392.12	1791.56
392.33	1808.15
392.54	1932.87
392.75	1856.89
392.96	1881.06
393.17	1725.62
393.38	2179.45
393.59	2055.34
393.80	1735.24
394.01	1908.71
394.22	2002.09
394.43	2308.27
394.64	1896.21
394.85	2043.26
395.06	2008.85
395.27	1997.38
395.48	1851.36
395.69	1736.68
395.90	1880.44
396.11	1911.98
396.32	1755.93
396.53	1892.32
396.74	1859.76
396.95	2033.22
397.16	1750.40
397.37	1687.73
397.58	2013.15
397.79	1930.21
398.00	1844.20
398.21	1815.32
398.42	1961.34
398.63	2199.31
398.84	1799.35
399.05	1762.89
399.26	2076.85
399.47	1957.65
399.68	1630.39
399.89	1745.89
400.10	1793.41
400.31	1860.78
400.52	1827.81
400.73	1778.05
400.94	1743.64
401.15	1954.99
401.36	1811.02
401.57	1873.28
401.78	2063.33
401.99	2006.60
402.20	1734.83
402.41	1934.31
402.62	2106.95
402.83	1885.97
403.04	1781.53
403.25	1954.38
403.46	2017.45
403.67	2229.62
403.88	2004.96
404.09	1978.95
404.30	2038.55
404.51	2014.79
404.72	1880.85
404.93	2013.77
405.14	1881.88
405.35	1926.93
405.56	1832.11
405.77	1790.13
405.98	1950.28
406.19	1894.78
406.40	1750.60
406.61	1765.55
406.82	1837.23
407.03	2205.25
407.24	1727.26
407.45	1838.05
407.66	1930.01
407.87	2020.94
408.08	1848.09
408.29	1889.87
408.49	1981.00
408.70	1896.62
408.91	1833.14
409.12	1880.24
409.33	1803.44
409.54	2069.68
409.75	1782.76
409.96	1807.33
410.17	2038.96
410.38	1867.54
410.59	1779.48
410.80	1884.13
411.01	1887.61
411.22	1890.07
411.43	1862.01
411.64	1759.61
411.85	1804.47
412.06	1783.37
412.27	1647.39
412.47	1811.63
412.68	1911.78
412.89	1956.83
413.10	1768.42
413.31	1703.50
413.52	2153.85
413.73	2164.91
413.94	1783.37
414.15	1918.33
414.36	1835.18
414.57	1839.69
414.78	1848.09
414.99	2354.96
415.19	2938.22
415.40	3123.97
415.61	3332.25
415.82	3125.81
416.03	2991.47
416.24	2675.67
416.45	2322.60
416.66	2033.02
416.87	1855.05
417.08	2093.43
417.29	1863.65
417.50	2016.43
417.70	2155.49
417.91	2189.28
418.12	2182.93
418.33	2290.04
418.54	2481.73
418.75	2671.17
418.96	2769.88
419.17	3184.80
419.38	3799.60
419.59	3847.31
419.79	3683.68
420.00	3533.16
420.21	3443.05
420.42	2700.86
420.63	2298.44
420.84	2162.65
421.05	1995.13
421.26	1944.96
421.47	1756.54
421.67	2077.66
421.88	1821.87
422.09	1768.01
422.30	1969.74
422.51	1800.98
422.72	2100.40
422.93	1975.88
423.14	1806.92
423.35	1719.47
423.55	1715.99
423.76	1808.97
423.97	1828.22
424.18	1733.20
424.39	1933.90
424.60	2096.51
424.81	1910.75
425.02	2168.80
425.22	2289.01
425.43	2314.20
425.64	2522.89
425.85	2539.48
426.06	2835.62
426.27	2740.39
426.48	2774.59
426.68	2734.45
426.89	2785.65
427.10	2840.12
427.31	2364.18
427.52	2036.50
427.73	2192.15
427.94	2064.76
428.14	1945.37
428.35	1825.56
428.56	2086.27
428.77	2040.19
428.98	1911.98
429.19	2124.77
429.40	2272.63
429.60	2362.13
429.81	2425.82
430.02	2327.11
430.23	2186.82
430.44	2178.22
430.65	1923.66
430.85	1927.34
431.06	1995.54
431.27	1726.44
431.48	1844.61
431.69	1836.00
431.90	1911.16
432.10	1937.17
432.31	1899.90
432.52	2021.14
432.73	2705.57
432.94	2672.60
433.15	2566.10
433.35	2427.25
433.56	2561.80
433.77	2280.41
433.98	2246.21
434.19	2088.93
434.40	2115.14
434.60	2029.74
434.81	1908.09
435.02	1928.16
435.23	1914.03
435.44	1867.95
435.64	1725.00
435.85	1776.82
436.06	1882.08
436.27	1840.71
436.48	1728.49
436.68	1769.65
436.89	2118.83
437.10	1963.18
437.31	1825.76
437.52	1899.29
437.73	1917.10
437.93	1914.85
438.14	1858.12
438.35	1711.49
438.56	1865.49
438.77	1877.37
438.97	1939.02
439.18	1751.42
439.39	2041.62
439.60	1729.71
439.80	1701.04
440.01	1827.20
440.22	1819.01
440.43	1981.00
440.64	1734.22
440.84	1844.81
441.05	1747.74
441.26	2262.19
441.47	1833.96
441.68	1781.53
441.88	1884.34
442.09	1874.71
442.30	1967.89
442.51	1875.12
442.71	1876.55
442.92	1940.25
443.13	1782.35
443.34	1764.33
443.55	1795.04
443.75	1958.06
443.96	1783.17
444.17	1761.05
444.38	2051.04
444.58	1792.59
444.79	1872.25
445.00	1822.90
445.21	1911.16
445.41	1867.54
445.62	1617.49
445.83	1912.60
446.04	1933.08
446.24	1753.88
446.45	1667.46
446.66	1788.29
446.87	1969.53
447.07	1833.34
447.28	1985.30
447.49	1835.39
447.70	2001.89
447.90	2043.05
448.11	1798.94
448.32	1892.32
448.53	2073.16
448.73	2061.69
448.94	1805.08
449.15	1926.32
449.36	1921.81
449.56	1961.95
449.77	1820.85
449.98	1757.98
450.19	1956.22
450.39	2068.45
450.60	2069.27
450.81	2055.75
451.02	2142.18
451.22	2213.04
451.43	1922.22
451.64	1920.18
451.84	2003.12
452.05	2214.88
452.26	1950.69
452.47	1883.93
452.67	1900.52
452.88	2100.81
453.09	1788.29
453.30	1735.86
453.50	2005.99
453.71	2106.13
453.92	1804.06
454.12	1913.21
454.33	1818.80
454.54	1876.96
454.75	1771.90
454.95	1770.06
455.16	1938.20
455.37	1992.88
455.57	1846.24
455.78	1832.73
455.99	1885.16
456.19	1930.42
456.40	1749.17
456.61	1849.11
456.82	1914.85
457.02	1989.40
457.23	1874.71
457.44	2007.01
457.64	1850.75
457.85	1968.71
458.06	1845.22
458.26	1889.46
458.47	1947.82
458.68	2054.52
458.89	1815.52
459.09	2077.05
459.30	2275.70
459.51	2039.37
459.71	1788.70
459.92	1831.50
460.13	2012.13
460.33	2225.32
460.54	1816.75
460.75	1827.20
460.95	1768.42
461.16	1973.42
461.37	1811.02
461.57	1851.16
461.78	1930.62
461.99	1814.91
462.19	2073.77
462.40	1879.22
462.61	2432.37
462.81	2111.25
463.02	1813.89
463.23	1842.76
463.43	2040.39
463.64	1897.44
463.85	2795.68
464.05	1880.65
464.26	2372.37
464.47	2138.49
464.67	2021.96
464.88	1916.08
465.09	1841.12
465.29	1942.09
465.50	1946.59
465.71	1839.69
465.91	1846.04
466.12	1904.00
466.33	1888.02
466.53	1806.51
466.74	2085.65
466.94	1898.88
467.15	1836.62
467.36	1994.52
467.56	1803.24
467.77	1970.56
467.98	1889.05
468.18	1794.43
468.39	1846.24
468.60	2187.85
468.80	1857.30
469.01	1788.90
469.21	2010.70
469.42	2109.00
469.63	1932.05
469.83	1870.00
470.04	2148.73
470.25	2285.74
470.45	1965.44
470.66	1865.70
470.86	2022.57
471.07	1915.67
471.28	1930.62
471.48	2003.12
471.69	1954.99
471.90	2386.09
472.10	1829.04
472.31	1836.00
472.51	1822.90
472.72	1822.69
472.93	1790.33
473.13	1953.97
473.34	1949.26
473.54	1909.32
473.75	1856.28
473.96	2038.14
474.16	1909.94
474.37	2058.62
474.57	1947.21
474.78	1909.73
474.99	2054.11
475.19	2036.50
475.40	1844.20
475.60	1772.93
475.81	2145.45
476.02	1933.49
476.22	1973.01
476.43	2092.82
476.63	1998.41
476.84	2173.10
477.05	1782.55
477.25	1843.79
477.46	2350.04
477.66	1967.48
477.87	1722.34
478.08	1879.22
478.28	2065.79
478.49	1911.57
478.69	1795.45
478.90	1828.43
479.10	2028.72
479.31	2130.30
479.52	1919.56
479.72	2005.37
479.93	2019.71
480.13	1865.49
480.34	1819.01
480.54	1903.79
480.75	1859.35
480.96	2054.11
481.16	1788.49
481.37	1935.13
481.57	2039.16
481.78	1971.58
481.98	2045.10
482.19	1899.29
482.40	2181.91
482.60	2037.32
482.81	1973.63
483.01	1887.82
483.22	2132.96
483.42	2159.17
483.63	2028.92
483.83	1954.99
484.04	1902.77
484.24	2029.13
484.45	1913.42
484.66	1742.00
484.86	1989.81
485.07	1843.58
485.27	1909.12
485.48	1828.02
485.68	2099.99
485.89	1856.48
486.09	1959.09
486.30	1855.46
486.50	1985.71
486.71	1984.48
486.91	2057.59
487.12	2124.97
487.33	2333.87
487.53	2364.99
487.74	2111.66
487.94	2103.06
488.15	2245.39
488.35	2303.76
488.56	2151.39
488.76	2137.46
488.97	2166.55
489.17	2176.58
489.38	2007.21
489.58	1934.51
489.79	2081.97
489.99	1993.08
490.20	1931.03
490.40	1992.26
490.61	2001.68
490.81	1887.41
491.02	1891.50
491.22	1944.75
491.43	2081.35
491.63	1956.83
491.84	2035.27
492.04	1809.18
492.25	2020.32
492.45	1894.78
492.66	1840.10
492.86	1768.22
493.07	1881.67
493.27	2206.48
493.48	1757.36
493.68	1883.31
493.89	1920.59
494.09	2040.80
494.30	1838.46
494.50	2111.25
494.71	2044.49
494.91	1873.48
495.12	1974.04
495.32	2101.83
495.53	2071.52
495.73	1839.69
495.94	1914.44
496.14	1746.51
496.35	2189.89
496.55	1904.82
496.76	1854.23
496.96	1939.02
497.17	1969.12
497.37	2041.01
497.58	1843.58
497.78	1820.03
497.98	1922.43
498.19	1954.79
498.39	1970.76
498.60	1973.22
498.80	1797.71
499.01	2076.03
499.21	1824.54
499.42	1900.72
499.62	1930.42
499.83	2218.77
500.03	1762.69
500.24	1939.43
500.44	2131.73
500.64	2068.04
500.85	1850.13
501.05	1959.70
501.26	1759.61
501.46	2111.25
501.67	1820.85
501.87	1757.57
502.08	1830.68
502.28	1900.11
502.48	1968.30
502.69	2051.45
502.89	1837.64
503.10	1914.44
503.30	1933.90
503.51	1951.10
503.71	1822.08
503.92	2066.81
504.12	2049.81
504.32	2002.30
504.53	2184.77
504.73	2241.09
504.94	2191.74
505.14	2290.45
505.35	2355.78
505.55	2351.07
505.75	2226.55
505.96	2362.33
506.16	2431.35
506.37	2074.59
506.57	1988.17
506.78	2070.50
506.98	2216.72
507.18	1904.61
507.39	1895.60
507.59	1971.58
507.80	1950.08
508.00	2044.69
508.20	2133.98
508.41	1984.07
508.61	2171.87
508.82	2102.24
509.02	2025.44
509.22	1824.94
509.43	1843.38
509.63	1871.23
509.84	1879.42
510.04	1786.85
510.24	2136.85
510.45	2040.80
510.65	1798.73
510.86	1930.21
511.06	1836.00
511.26	2093.84
511.47	2042.23
511.67	1922.63
511.88	2071.11
512.08	2100.81
512.28	1812.86
512.49	1978.13
512.69	1970.97
512.90	1983.05
513.10	1835.80
513.30	1910.35
513.51	2021.96
513.71	2159.99
513.91	1951.51
514.12	1998.20
514.32	2153.64
514.53	2038.75
514.73	2146.48
514.93	2111.05
515.14	2233.51
515.34	2497.91
515.54	2410.87
515.75	2504.05
515.95	2641.06
516.15	2642.08
516.36	2325.26
516.56	2212.83
516.77	1892.53
516.97	2174.33
517.17	2048.79
517.38	2110.64
517.58	2293.11
517.78	2178.63
517.99	2428.89
518.19	2536.00
518.39	2816.78
518.60	2645.16
518.80	2429.51
519.00	2359.67
519.21	2200.13
519.41	2373.39
519.61	1983.66
519.82	2077.25
520.02	2055.55
520.22	2057.59
520.43	2024.21
520.63	2040.19
520.83	1985.71
521.04	1911.98
521.24	2334.68
521.44	2387.73
521.65	2466.57
521.85	2711.51
522.05	2447.73
522.26	2300.48
522.46	2466.98
522.66	2252.97
522.87	1997.18
523.07	2197.88
523.27	2032.20
523.48	2255.43
523.68	2065.99
523.88	2070.91
524.09	2211.40
524.29	2130.71
524.49	2022.16
524.70	2343.70
524.90	2517.77
525.10	2394.49
525.31	2114.73
525.51	1985.51
525.71	2172.49
525.91	2085.65
526.12	1913.83
526.32	1817.98
526.52	1893.55
526.73	1888.64
526.93	1929.19
527.13	1839.69
527.34	1957.04
527.54	1974.65
527.74	1925.50
527.94	1875.53
528.15	1899.90
528.35	1989.19
528.55	2024.83
528.76	1987.96
528.96	1755.93
529.16	2066.40
529.36	2023.19
529.57	1804.87
529.77	2067.63
529.97	1824.74
530.18	1993.90
530.38	1879.42
530.58	2019.30
530.78	1970.97
530.99	1874.71
531.19	2004.76
531.39	1915.06
531.60	1986.12
531.80	1887.00
532.00	2029.74
532.20	1976.49
532.41	1882.70
532.61	1884.75
532.81	1865.49
533.01	1886.38
533.22	1970.56
533.42	1991.85
533.62	1741.18
533.82	2122.92
534.03	1910.55
534.23	1973.01
534.43	1839.90
534.63	1880.44
534.84	1966.87
535.04	1949.87
535.24	1915.26
535.44	2257.89
535.65	1891.71
535.85	1830.88
536.05	1827.40
536.25	1921.20
536.46	1870.21
536.66	2108.18
536.86	2008.65
537.06	2135.83
537.27	2210.17
537.47	2022.57
537.67	1916.49
537.87	2165.11
538.08	1937.99
538.28	1838.67
538.48	1853.00
538.68	1997.59
538.88	2101.01
539.09	1874.71
539.29	1929.80
539.49	2077.05
539.69	2018.89
539.90	2000.46
540.10	1858.94
540.30	2183.75
540.50	1967.69
540.70	1877.17
540.91	2044.49
541.11	2169.00
541.31	2364.79
541.51	2231.47
541.72	2271.61
541.92	2334.68
542.12	2166.14
542.32	2079.71
542.52	1977.11
542.73	1953.56
542.93	2087.49
543.13	1971.17
543.33	2125.79
543.53	2235.36
543.74	2278.37
543.94	2132.75
544.14	2330.59
544.34	2521.66
544.54	2405.54
544.75	2552.18
544.95	2714.99
545.15	2573.48
545.35	2608.50
545.55	2402.06
545.75	2168.39
545.96	2449.78
546.16	1987.35
546.36	2055.75
546.56	2053.50
546.76	2188.66
546.97	2273.45
547.17	2020.12
547.37	2020.73
547.57	1921.40
547.77	2063.94
547.97	1962.16
548.18	2001.48
548.38	2041.62
548.58	2656.42
548.78	2849.75
548.98	3256.88
549.18	3656.24
549.39	3843.42
549.59	3393.28
549.79	3015.84
549.99	3118.24
550.19	2837.46
550.39	2674.44
550.60	2390.39
550.80	2358.65
551.00	2293.72
551.20	2108.18
551.40	2028.10
551.60	2138.90
551.80	2099.17
552.01	2129.68
552.21	2067.63
552.41	2104.49
552.61	2283.08
552.81	2049.20
553.01	1896.01
553.21	2100.81
553.42	1892.12
553.62	1892.73
553.82	1864.06
554.02	2179.24
554.22	2068.65
554.42	1842.35
554.62	2020.32
554.83	2426.64
555.03	2775.41
555.23	2812.48
555.43	3232.92
555.63	3231.08
555.83	3043.90
556.03	2701.07
556.23	2508.97
556.44	2655.81
556.64	2713.56
556.84	2277.14
557.04	2501.18
557.24	2501.39
557.44	2352.30
557.64	2213.44
557.84	2033.22
558.04	2053.29
558.25	2164.29
558.45	1980.80
558.65	2057.39
558.85	2133.98
559.05	1932.46
559.25	2109.82
559.45	2273.04
559.65	2728.51
559.85	3302.35
560.05	2800.39
560.26	2902.59
560.46	2951.74
560.66	2708.85
560.86	2492.58
561.06	2309.49
561.26	2537.64
561.46	2335.30
561.66	2140.13
561.86	2224.50
562.06	2066.81
562.26	2094.05
562.47	2060.46
562.67	1920.99
562.87	2081.15
563.07	1853.62
563.27	2048.58
563.47	2067.42
563.67	2000.66
563.87	2175.56
564.07	2131.73
564.27	2279.59
564.47	2351.89
564.67	2503.03
564.87	2370.93
565.08	2411.89
565.28	2219.59
565.48	2312.98
565.68	2189.07
565.88	2164.70
566.08	2333.05
566.28	2053.50
566.48	1855.05
566.68	1938.20
566.88	1939.43
567.08	2065.17
567.28	1971.37
567.48	1991.65
567.68	2128.66
567.88	1973.42
568.08	2165.11
568.28	2245.39
568.48	2115.55
568.68	2317.07
568.89	2091.59
569.09	1895.40
569.29	2128.04
569.49	2139.31
569.69	1896.01
569.89	1866.31
570.09	1746.51
570.29	1877.37
570.49	1793.41
570.69	1854.03
570.89	2040.80
571.09	2199.93
571.29	1756.75
571.49	2047.97
571.69	1982.84
571.89	1995.13
572.09	1842.97
572.29	1833.75
572.49	2026.67
572.69	2000.25
572.89	1989.60
573.09	1832.32
573.29	2142.79
573.49	2204.02
573.69	2213.24
573.89	2237.61
574.09	2052.06
574.29	2206.69
574.49	1975.47
574.69	1926.73
574.89	1826.79
575.09	1855.25
575.29	1829.25
575.49	1921.61
575.69	1966.87
575.89	1780.71
576.09	1925.71
576.29	1987.76
576.49	1890.07
576.69	2017.04
576.89	1915.87
577.09	2029.95
577.29	1842.15
577.49	2237.20
577.69	1918.74
577.89	2035.27
578.09	1982.64
578.29	1789.72
578.49	1952.12
578.69	1850.75
578.89	2087.08
579.09	1975.47
579.29	1891.09
579.49	2098.14
579.69	1978.34
579.89	2220.82
580.09	1824.33
580.29	1795.66
580.49	1889.25
580.69	1811.63
580.89	1899.70
581.09	1888.02
581.29	1855.25
581.49	1904.20
581.69	1784.60
581.89	1813.89
582.09	1812.25
582.28	1833.14
582.48	2090.77
582.68	2203.82
582.88	2265.05
583.08	2066.81
583.28	2071.73
583.48	2047.76
583.68	1954.17
583.88	1991.65
584.08	1995.13
584.28	1945.37
584.48	2228.60
584.68	2036.09
584.88	1913.21
585.08	2082.37
585.28	2099.58
585.48	2159.17
585.68	2061.28
585.87	2078.07
586.07	2073.16
586.27	1997.38
586.47	2025.03
586.67	1916.28
586.87	1947.62
587.07	1903.18
587.27	1876.96
587.47	2033.22
587.67	2350.45
587.87	2792.41
588.07	2685.71
588.27	2707.82
588.46	2990.65
588.66	3023.21
588.86	2622.63
589.06	2555.05
589.26	2457.77
589.46	2377.90
589.66	2048.17
589.86	2000.87
590.06	2111.25
590.26	2352.30
590.46	2253.18
590.66	2425.41
590.85	2395.30
591.05	2501.80
591.25	2180.47
591.45	2198.70
591.65	2315.02
591.85	2302.74
592.05	2282.67
592.25	2452.24
592.45	2572.25
592.64	2406.77
592.84	2315.43
593.04	2151.80
593.24	2558.94
593.44	2188.05
593.64	2223.89
593.84	2259.32
594.04	2169.41
594.24	2338.78
594.43	2024.62
594.63	2058.41
