SpectraSuite Data File
++++++++++++++++++++++++++++++++++++
Date: Thu Mar 30 16:26:55 PDT 2017
User: UCSD _CER
Dark Spectrum Present: No
Reference Spectrum Present: No
Number of Sampled Component Spectra: 1
Spectrometers: USB4C00073
Integration Time (usec): 250000 (USB4C00073)
Spectra Averaged: 10 (USB4C00073)
Boxcar Smoothing: 0 (USB4C00073)
Correct for Electrical Dark: No (USB4C00073)
Strobe/Lamp Enabled: No (USB4C00073)
Correct for Detector Non-linearity: No (USB4C00073)
Correct for Stray Light: No (USB4C00073)
Number of Pixels in Processed Spectrum: 3648
>>>>>Begin Processed Spectral Data<<<<<
345.37	1292.06
345.58	1292.06
345.80	1292.06
346.01	1263.80
346.22	1277.11
346.43	1974.86
346.65	1787.26
346.86	2150.57
347.07	2094.66
347.28	1821.05
347.50	1788.90
347.71	1932.87
347.92	1709.44
348.13	1784.19
348.35	1725.62
348.56	1930.82
348.77	1772.31
348.98	1832.52
349.20	1681.18
349.41	1932.26
349.62	1973.01
349.83	1842.76
350.05	1760.84
350.26	1959.09
350.47	2080.94
350.68	1784.80
350.90	1728.28
351.11	2097.53
351.32	2077.66
351.53	1805.69
351.75	1724.18
351.96	1955.20
352.17	1909.94
352.38	1853.41
352.60	1858.94
352.81	1923.45
353.02	2132.14
353.23	1758.39
353.44	1824.94
353.66	1829.86
353.87	1860.37
354.08	1915.06
354.29	1812.66
354.51	1828.84
354.72	1887.41
354.93	1759.82
355.14	1725.21
355.35	1751.42
355.57	2028.72
355.78	1793.20
355.99	1889.46
356.20	1930.21
356.42	1906.66
356.63	1902.77
356.84	1854.03
357.05	2019.30
357.26	2223.89
357.48	1884.95
357.69	1839.90
357.90	1942.50
358.11	1853.00
358.32	1812.04
358.54	1848.09
358.75	1859.97
358.96	1994.31
359.17	1786.24
359.38	1782.55
359.60	1996.77
359.81	1920.59
360.02	1806.51
360.23	1765.55
360.44	1836.41
360.66	2017.45
360.87	1757.36
361.08	1743.03
361.29	1963.80
361.50	1899.70
361.72	1771.29
361.93	1853.21
362.14	1923.66
362.35	1735.24
362.56	1903.79
362.77	1743.23
362.99	1992.26
363.20	1912.39
363.41	1872.87
363.62	1701.66
363.83	1960.32
364.05	2034.45
364.26	1710.05
364.47	1771.90
364.68	2061.69
364.89	1810.61
365.10	1727.67
365.32	1815.32
365.53	1809.99
365.74	1872.66
365.95	1788.29
366.16	1674.83
366.37	1888.02
366.59	1894.17
366.80	1795.86
367.01	1680.97
367.22	2154.46
367.43	2298.44
367.64	1802.62
367.86	1794.23
368.07	1963.80
368.28	2091.59
368.49	1748.97
368.70	1829.45
368.91	1850.13
369.12	1903.38
369.34	1722.75
369.55	1728.28
369.76	1889.66
369.97	1851.77
370.18	1736.06
370.39	1743.03
370.60	1738.73
370.82	1777.02
371.03	1790.95
371.24	1756.34
371.45	1987.35
371.66	1994.31
371.87	1789.11
372.08	1761.66
372.30	1777.23
372.51	1979.77
372.72	1872.46
372.93	1759.00
373.14	2096.92
373.35	1827.61
373.56	1740.98
373.78	1812.04
373.99	1989.60
374.20	2265.46
374.41	1800.98
374.62	1818.39
374.83	2092.41
375.04	1864.68
375.25	1789.52
375.47	1790.13
375.68	1879.01
375.89	1996.56
376.10	1816.55
376.31	1904.20
376.52	1954.58
376.73	1946.59
376.94	1813.68
377.15	1793.00
377.37	1922.22
377.58	1884.75
377.79	1680.36
378.00	1764.12
378.21	1948.85
378.42	1973.01
378.63	1843.17
378.84	1848.29
379.05	2037.52
379.27	1911.16
379.48	1904.61
379.69	1753.88
379.90	2039.78
380.11	1658.45
380.32	1774.16
380.53	1872.05
380.74	2075.21
380.95	1930.01
381.16	1806.51
381.37	1794.02
381.59	2095.89
381.80	2041.21
382.01	1745.28
382.22	1691.01
382.43	1981.20
382.64	1946.18
382.85	1742.21
383.06	1845.02
383.27	2031.18
383.48	1859.56
383.69	1841.74
383.91	1742.62
384.12	1970.97
384.33	1955.61
384.54	1804.26
384.75	1686.91
384.96	2296.18
385.17	2018.27
385.38	1766.37
385.59	1771.49
385.80	1991.04
386.01	2086.27
386.22	1895.60
386.43	1805.28
386.64	2174.12
386.86	1911.16
387.07	1906.86
387.28	1717.63
387.49	1840.71
387.70	2063.53
387.91	1870.41
388.12	1741.18
388.33	1962.77
388.54	1839.90
388.75	1783.58
388.96	1874.30
389.17	1852.18
389.38	1906.45
389.59	1865.49
389.80	1825.15
390.01	1892.32
390.22	1864.27
390.43	1904.82
390.64	1684.25
390.86	1966.05
391.07	2030.36
391.28	1794.02
391.49	1823.31
391.70	1753.27
391.91	1817.57
392.12	1818.80
392.33	1777.84
392.54	1895.80
392.75	1889.87
392.96	1871.84
393.17	1729.30
393.38	2217.75
393.59	2050.22
393.80	1732.58
394.01	1852.18
394.22	1960.32
394.43	2212.63
394.64	1832.32
394.85	1994.31
395.06	1962.36
395.27	1975.47
395.48	1845.42
395.69	1731.97
395.90	1885.77
396.11	1912.39
396.32	1761.05
396.53	1884.54
396.74	1869.18
396.95	2050.43
397.16	1763.92
397.37	1718.66
397.58	2038.75
397.79	1920.59
398.00	1836.41
398.21	1815.73
398.42	1962.36
398.63	2169.00
398.84	1815.73
399.05	1784.80
399.26	2071.32
399.47	1940.25
399.68	1651.48
399.89	1751.63
400.10	1761.87
400.31	1843.58
400.52	1825.97
400.73	1802.62
400.94	1714.15
401.15	1935.54
401.36	1811.22
401.57	1847.47
401.78	2054.73
401.99	2030.77
402.20	1748.76
402.41	1936.56
402.62	2092.00
402.83	1893.14
403.04	1772.72
403.25	1960.73
403.46	1998.82
403.67	2161.84
403.88	1916.08
404.09	1918.13
404.30	1965.64
404.51	1926.73
404.72	1836.82
404.93	1949.67
405.14	1848.70
405.35	1922.43
405.56	1807.74
405.77	1765.55
405.98	1934.10
406.19	1894.99
406.40	1745.48
406.61	1780.71
406.82	1809.79
407.03	2193.17
407.24	1730.33
407.45	1819.62
407.66	1955.61
407.87	2017.66
408.08	1854.85
408.29	1887.61
408.49	1973.01
408.70	1916.90
408.91	1813.27
409.12	1901.33
409.33	1787.26
409.54	2071.73
409.75	1762.07
409.96	1807.33
410.17	2021.35
410.38	1880.44
410.59	1756.75
410.80	1891.71
411.01	1885.16
411.22	1876.35
411.43	1850.95
411.64	1767.81
411.85	1803.03
412.06	1789.31
412.27	1643.09
412.47	1778.46
412.68	1891.09
412.89	1959.91
413.10	1752.45
413.31	1699.40
413.52	2155.08
413.73	2144.02
413.94	1764.94
414.15	1912.60
414.36	1838.46
414.57	1806.92
414.78	1790.54
414.99	2135.42
415.19	2587.20
415.40	2679.56
415.61	2783.39
415.82	2644.75
416.03	2613.62
416.24	2402.06
416.45	2136.44
416.66	1952.53
416.87	1827.81
417.08	2033.02
417.29	1827.81
417.50	1951.30
417.70	2097.53
417.91	2110.02
418.12	2024.62
418.33	2110.02
418.54	2287.79
418.75	2409.03
418.96	2455.31
419.17	2630.82
419.38	3121.92
419.59	3118.85
419.79	2977.13
420.00	2849.13
420.21	2984.30
420.42	2393.26
420.63	2092.20
420.84	2044.49
421.05	1937.38
421.26	1903.59
421.47	1744.25
421.67	2050.43
421.88	1825.76
422.09	1741.80
422.30	1947.62
422.51	1818.19
422.72	2113.30
422.93	1987.55
423.14	1796.27
423.35	1687.32
423.55	1731.97
423.76	1786.03
423.97	1821.26
424.18	1699.40
424.39	1907.27
424.60	2079.92
424.81	1884.54
425.02	2048.17
425.22	2111.25
425.43	2129.89
425.64	2257.68
425.85	2237.00
426.06	2536.41
426.27	2416.19
426.48	2424.18
426.68	2355.98
426.89	2467.19
427.10	2576.75
427.31	2128.45
427.52	1949.46
427.73	2113.91
427.94	2028.31
428.14	1919.15
428.35	1776.20
428.56	2072.75
428.77	2031.38
428.98	1893.35
429.19	2012.95
429.40	2118.01
429.60	2150.78
429.81	2221.23
430.02	2166.34
430.23	2059.85
430.44	2124.36
430.65	1884.34
430.85	1902.56
431.06	1984.89
431.27	1730.74
431.48	1814.71
431.69	1855.05
431.90	1922.63
432.10	1900.11
432.31	1859.76
432.52	1878.81
432.73	2487.05
432.94	2406.16
433.15	2280.82
433.35	2191.74
433.56	2363.97
433.77	2116.17
433.98	2090.77
434.19	1976.49
434.40	2011.31
434.60	1984.07
434.81	1848.91
435.02	1882.70
435.23	1910.14
435.44	1876.76
435.64	1718.04
435.85	1787.47
436.06	1885.16
436.27	1876.76
436.48	1744.46
436.68	1759.61
436.89	2103.26
437.10	1977.72
437.31	1819.01
437.52	1891.30
437.73	1945.16
437.93	1905.43
438.14	1856.28
438.35	1693.06
438.56	1857.71
438.77	1882.08
438.97	1918.54
439.18	1749.78
439.39	2042.03
439.60	1734.63
439.80	1707.60
440.01	1817.16
440.22	1822.28
440.43	1981.41
440.64	1725.21
440.84	1860.37
441.05	1761.66
441.26	2230.85
441.47	1848.91
441.68	1775.79
441.88	1877.99
442.09	1884.54
442.30	1952.53
442.51	1834.16
442.71	1853.21
442.92	1941.06
443.13	1757.16
443.34	1749.58
443.55	1774.36
443.75	1988.37
443.96	1748.76
444.17	1750.81
444.38	2059.03
444.58	1791.77
444.79	1873.69
445.00	1823.10
445.21	1881.06
445.41	1873.28
445.62	1651.07
445.83	1871.64
446.04	1911.78
446.24	1755.11
446.45	1649.84
446.66	1801.80
446.87	1965.64
447.07	1853.41
447.28	1988.78
447.49	1827.81
447.70	2028.31
447.90	2034.66
448.11	1824.33
448.32	1881.88
448.53	2075.41
448.73	2081.76
448.94	1807.54
449.15	1946.18
449.36	1928.16
449.56	1951.51
449.77	1786.03
449.98	1716.20
450.19	1897.44
450.39	1966.05
450.60	1988.17
450.81	1960.11
451.02	2024.21
451.22	2157.13
451.43	1872.46
451.64	1862.22
451.84	1945.37
452.05	2122.72
452.26	1907.68
452.47	1841.33
452.67	1881.26
452.88	2110.23
453.09	1786.03
453.30	1759.41
453.50	1982.64
453.71	2081.15
453.92	1790.95
454.12	1911.16
454.33	1831.50
454.54	1867.75
454.75	1730.94
454.95	1741.18
455.16	1944.34
455.37	1974.04
455.57	1832.73
455.78	1798.53
455.99	1883.93
456.19	1930.62
456.40	1747.12
456.61	1850.75
456.82	1892.12
457.02	2011.51
457.23	1873.07
457.44	1985.51
457.64	1856.48
457.85	1958.47
458.06	1846.04
458.26	2005.58
458.47	1920.38
458.68	2047.97
458.89	1783.78
459.09	2000.46
459.30	2253.38
459.51	2000.87
459.71	1778.25
459.92	1834.98
460.13	2040.19
460.33	2175.56
460.54	1802.42
460.75	1835.18
460.95	1788.90
461.16	1961.13
461.37	1811.63
461.57	1836.21
461.78	1911.16
461.99	1802.83
462.19	2070.09
462.40	1816.96
462.61	2245.80
462.81	2103.47
463.02	1782.14
463.23	1821.46
463.43	2008.24
463.64	1888.84
463.85	2714.17
464.05	1797.30
464.26	2349.02
464.47	2119.44
464.67	2026.47
464.88	1884.54
465.09	1823.10
465.29	1908.09
465.50	1933.49
465.71	1800.98
465.91	1843.99
466.12	1921.20
466.33	1872.46
466.53	1812.04
466.74	2059.64
466.94	1880.65
467.15	1822.28
467.36	2012.33
467.56	1817.16
467.77	1922.84
467.98	1847.68
468.18	1780.30
468.39	1844.81
468.60	2152.42
468.80	1864.88
469.01	1751.83
469.21	1988.37
469.42	2069.88
469.63	1906.86
469.83	1834.98
470.04	2078.28
470.25	2192.15
470.45	1940.66
470.66	1836.21
470.86	2003.12
471.07	1903.79
471.28	1921.40
471.48	1967.28
471.69	1957.86
471.90	2389.98
472.10	1812.86
472.31	1849.32
472.51	1829.86
472.72	1821.05
472.93	1743.23
473.13	1947.82
473.34	1966.66
473.54	1890.48
473.75	1847.88
473.96	2013.56
474.16	1933.08
474.37	2030.56
474.57	1918.33
474.78	1858.12
474.99	2034.04
475.19	1988.58
475.40	1863.04
475.60	1747.74
475.81	2118.62
476.02	1919.97
476.22	1927.55
476.43	2076.03
476.63	1947.21
476.84	2130.30
477.05	1724.18
477.25	1800.16
477.46	2320.96
477.66	1936.56
477.87	1746.51
478.08	1837.85
478.28	2054.52
478.49	1899.29
478.69	1785.01
478.90	1814.91
479.10	2013.36
479.31	2140.95
479.52	1900.52
479.72	1945.78
479.93	1996.77
480.13	1853.00
480.34	1824.74
480.54	1896.21
480.75	1808.97
480.96	2056.98
481.16	1805.90
481.37	1939.02
481.57	2021.35
481.78	2009.26
481.98	1997.59
482.19	1872.25
482.40	2186.21
482.60	2013.36
482.81	1935.13
483.01	1864.06
483.22	2080.74
483.42	2085.04
483.63	1967.89
483.83	1934.10
484.04	1865.29
484.24	2025.85
484.45	1890.07
484.66	1750.19
484.86	1978.75
485.07	1831.29
485.27	1895.60
485.48	1821.87
485.68	2081.15
485.89	1817.78
486.09	1911.98
486.30	1831.09
486.50	1928.98
486.71	1972.40
486.91	1989.60
487.12	2028.31
487.33	2302.94
487.53	2287.58
487.74	2095.07
487.94	2014.59
488.15	2122.72
488.35	2176.99
488.56	2092.82
488.76	2050.02
488.97	2063.53
489.17	2124.77
489.38	1952.74
489.58	1909.94
489.79	2028.31
489.99	2015.61
490.20	1905.63
490.40	1981.82
490.61	2000.66
490.81	1912.19
491.02	1869.39
491.22	1947.00
491.43	2036.30
491.63	1943.93
491.84	1993.29
492.04	1762.28
492.25	2017.66
492.45	1884.95
492.66	1822.28
492.86	1741.39
493.07	1908.91
493.27	2188.46
493.48	1736.06
493.68	1870.41
493.89	1899.90
494.09	1983.87
494.30	1812.25
494.50	2103.47
494.71	2010.49
494.91	1845.02
495.12	1925.30
495.32	2018.48
495.53	2019.30
495.73	1773.54
495.94	1882.49
496.14	1717.63
496.35	2152.82
496.55	1922.63
496.76	1846.24
496.96	1919.97
497.17	1937.17
497.37	2004.55
497.58	1831.70
497.78	1772.93
497.98	1916.08
498.19	1925.91
498.39	1923.25
498.60	1965.85
498.80	1781.94
499.01	2044.28
499.21	1808.77
499.42	1850.13
499.62	1893.76
499.83	2214.88
500.03	1757.57
500.24	1928.78
500.44	2105.93
500.64	2055.96
500.85	1835.80
501.05	1961.13
501.26	1743.85
501.46	2104.08
501.67	1804.47
501.87	1779.48
502.08	1804.06
502.28	1901.95
502.48	1951.51
502.69	1987.76
502.89	1787.88
503.10	1903.38
503.30	1937.58
503.51	1895.60
503.71	1782.14
503.92	2035.07
504.12	1997.79
504.32	1969.33
504.53	2137.06
504.73	2171.05
504.94	2103.26
505.14	2234.33
505.35	2235.15
505.55	2213.44
505.75	2153.03
505.96	2246.83
506.16	2343.90
506.37	2009.06
506.57	1918.33
506.78	2000.66
506.98	2148.32
507.18	1866.31
507.39	1820.85
507.59	1923.86
507.80	1897.65
508.00	1998.00
508.20	2070.29
508.41	1975.47
508.61	2153.44
508.82	2057.39
509.02	1986.53
509.22	1785.83
509.43	1816.96
509.63	1835.39
509.84	1880.24
510.04	1771.08
510.24	2116.78
510.45	2035.07
510.65	1777.64
510.86	1929.80
511.06	1846.65
511.26	2077.87
511.47	2002.71
511.67	1847.88
511.88	2059.64
512.08	2083.81
512.28	1788.70
512.49	1951.92
512.69	1941.27
512.90	1971.99
513.10	1814.91
513.30	1902.36
513.51	2006.80
513.71	2123.33
513.91	1940.04
514.12	1952.94
514.32	2062.51
514.53	1974.45
514.73	2094.46
514.93	2042.03
515.14	2125.18
515.34	2389.57
515.54	2214.88
515.75	2349.84
515.95	2472.92
516.15	2509.99
516.36	2200.75
516.56	2148.52
516.77	1828.63
516.97	2122.51
517.17	1964.21
517.38	2048.38
517.58	2215.70
517.78	2093.02
517.99	2277.34
518.19	2338.58
518.39	2605.22
518.60	2459.41
518.80	2254.81
519.00	2246.62
519.21	2098.96
519.41	2296.18
519.61	1952.74
519.82	2015.41
520.02	2018.68
520.22	2010.29
520.43	1974.65
520.63	1978.75
520.83	1954.79
521.04	1875.32
521.24	2213.85
521.44	2235.77
521.65	2326.70
521.85	2498.32
522.05	2269.56
522.26	2178.63
522.46	2401.04
522.66	2173.92
522.87	1970.97
523.07	2097.73
523.27	1984.48
523.48	2217.54
523.68	2032.61
523.88	2003.94
524.09	2175.56
524.29	2089.75
524.49	1908.50
524.70	2236.18
524.90	2371.14
525.10	2304.17
525.31	2011.31
525.51	1936.35
525.71	2106.13
525.91	2076.64
526.12	1860.58
526.32	1801.19
526.52	1904.20
526.73	1881.26
526.93	1949.87
527.13	1754.90
527.34	1934.10
527.54	1947.82
527.74	1912.19
527.94	1846.86
528.15	1858.53
528.35	1984.28
528.55	2018.89
528.76	1990.42
528.96	1753.27
529.16	2071.32
529.36	2003.73
529.57	1804.87
529.77	2087.49
529.97	1831.29
530.18	1974.45
530.38	1873.48
530.58	1996.56
530.78	1938.81
530.99	1868.16
531.19	1989.19
531.39	1868.77
531.60	1944.55
531.80	1844.20
532.00	2028.92
532.20	1970.76
532.41	1861.40
532.61	1850.13
532.81	1882.08
533.01	1905.43
533.22	1988.17
533.42	1978.13
533.62	1758.39
533.82	2089.13
534.03	1918.74
534.23	1948.03
534.43	1820.03
534.63	1888.02
534.84	1946.39
535.04	1928.57
535.24	1868.36
535.44	2254.81
535.65	1884.54
535.85	1838.87
536.05	1819.42
536.25	1948.23
536.46	1844.81
536.66	2082.37
536.86	1988.37
537.06	2084.83
537.27	2153.44
537.47	2018.89
537.67	1875.94
537.87	2153.03
538.08	1956.83
538.28	1841.12
538.48	1849.52
538.68	1950.90
538.88	2062.10
539.09	1807.13
539.29	1915.06
539.49	2096.51
539.69	1993.90
539.90	1982.23
540.10	1838.05
540.30	2151.19
540.50	1920.18
540.70	1861.60
540.91	1975.47
541.11	2154.87
541.31	2316.25
541.51	2163.27
541.72	2178.01
541.92	2248.26
542.12	2062.10
542.32	2008.65
542.52	1946.80
542.73	1898.06
542.93	2066.20
543.13	1933.08
543.33	2043.26
543.53	2179.24
543.74	2197.47
543.94	2043.05
544.14	2213.85
544.34	2413.74
544.54	2258.70
544.75	2386.91
544.95	2542.55
545.15	2434.01
545.35	2465.55
545.55	2268.33
545.75	2067.01
545.96	2391.21
546.16	1969.12
546.36	2044.08
546.56	2001.68
546.76	2153.64
546.97	2248.67
547.17	1944.34
547.37	2014.79
547.57	1898.47
547.77	2051.66
547.97	1948.03
548.18	1957.86
548.38	2007.83
548.58	2480.50
548.78	2538.66
548.98	2904.84
549.18	3223.50
549.39	3356.83
549.59	3027.72
549.79	2757.18
549.99	2829.06
550.19	2640.86
550.39	2483.57
550.60	2246.62
550.80	2228.19
551.00	2230.65
551.20	2031.99
551.40	1986.53
551.60	2103.47
551.80	2055.96
552.01	2085.65
552.21	2001.07
552.41	2076.85
552.61	2216.11
552.81	2005.17
553.01	1859.56
553.21	2048.58
553.42	1873.69
553.62	1884.75
553.82	1871.23
554.02	2178.83
554.22	2042.44
554.42	1830.68
554.62	1987.76
554.83	2329.56
555.03	2571.84
555.23	2532.11
555.43	2938.84
555.63	2892.35
555.83	2753.70
556.03	2481.93
556.23	2293.93
556.44	2428.28
556.64	2519.62
556.84	2122.11
557.04	2323.83
557.24	2343.29
557.44	2217.54
557.64	2140.54
557.84	1937.99
558.04	2007.01
558.25	2111.05
558.45	1934.92
558.65	2029.33
558.85	2038.75
559.05	1849.32
559.25	2007.21
559.45	2168.18
559.65	2568.36
559.85	3065.40
560.05	2523.71
560.26	2646.59
560.46	2614.03
560.66	2408.21
560.86	2263.82
561.06	2182.32
561.26	2398.99
561.46	2214.47
561.66	2055.34
561.86	2140.74
562.06	1972.60
562.26	2045.72
562.47	1994.11
562.67	1851.57
562.87	2052.68
563.07	1837.64
563.27	2016.84
563.47	1993.90
563.67	1975.68
563.87	2150.57
564.07	2008.65
564.27	2192.76
564.47	2255.63
564.67	2317.48
564.87	2178.63
565.08	2241.30
565.28	2150.16
565.48	2220.41
565.68	2140.54
565.88	2096.51
566.08	2287.38
566.28	1997.79
566.48	1829.04
566.68	1905.23
566.88	1904.00
567.08	2046.54
567.28	1934.92
567.48	1987.14
567.68	2092.61
567.88	1881.47
568.08	2111.46
568.28	2195.22
568.48	2069.88
568.68	2219.18
568.89	2051.25
569.09	1816.55
569.29	2113.30
569.49	2093.64
569.69	1847.06
569.89	1864.06
570.09	1739.75
570.29	1867.54
570.49	1789.11
570.69	1855.66
570.89	2047.76
571.09	2191.94
571.29	1749.58
571.49	2045.31
571.69	1973.42
571.89	1941.06
572.09	1859.56
572.29	1816.96
572.49	2005.58
572.69	1986.32
572.89	1923.66
573.09	1751.01
573.29	2081.97
573.49	2111.05
573.69	2128.45
573.89	2193.37
574.09	1992.26
574.29	2172.28
574.49	1906.86
574.69	1875.12
574.89	1815.32
575.09	1825.35
575.29	1827.61
575.49	1906.66
575.69	1998.82
575.89	1787.88
576.09	1922.84
576.29	1952.33
576.49	1843.99
576.69	1979.77
576.89	1925.91
577.09	1970.56
577.29	1806.31
577.49	2200.54
577.69	1894.58
577.89	2013.15
578.09	1967.48
578.29	1767.60
578.49	1922.43
578.69	1846.65
578.89	2082.37
579.09	1953.15
579.29	1839.28
579.49	2041.42
579.69	1927.14
579.89	2195.83
580.09	1763.30
580.29	1775.79
580.49	1873.69
580.69	1827.61
580.89	1896.21
581.09	1852.39
581.29	1861.19
581.49	1889.05
581.69	1787.67
581.89	1816.96
582.09	1808.97
582.28	1846.24
582.48	2017.86
582.68	2139.72
582.88	2214.06
583.08	2022.37
583.28	2024.62
583.48	2017.86
583.68	1893.76
583.88	1981.20
584.08	1951.71
584.28	1924.07
584.48	2207.10
584.68	1981.00
584.88	1870.61
585.08	2067.63
585.28	2079.71
585.48	2126.61
585.68	1999.02
585.87	2059.03
586.07	2041.21
586.27	1930.21
586.47	1998.20
586.67	1926.11
586.87	1918.74
587.07	1880.04
587.27	1841.53
587.47	1994.93
587.67	2310.52
587.87	2634.71
588.07	2456.13
588.27	2436.88
588.46	2677.31
588.66	2719.91
588.86	2418.04
589.06	2367.04
589.26	2332.84
589.46	2248.26
589.66	1973.83
589.86	1926.11
590.06	2042.85
590.26	2211.40
590.46	2127.43
590.66	2259.32
590.85	2172.49
591.05	2314.61
591.25	2057.80
591.45	2092.41
591.65	2208.32
591.85	2174.94
592.05	2152.62
592.25	2299.46
592.45	2389.37
592.64	2241.30
592.84	2169.41
593.04	2038.34
593.24	2450.80
593.44	2076.23
593.64	2160.81
593.84	2166.55
594.04	2106.13
594.24	2266.28
594.43	1980.80
594.63	2016.23
