SpectraSuite Data File
++++++++++++++++++++++++++++++++++++
Date: Thu Mar 30 16:24:40 PDT 2017
User: UCSD _CER
Dark Spectrum Present: No
Reference Spectrum Present: No
Number of Sampled Component Spectra: 1
Spectrometers: USB4C00073
Integration Time (usec): 250000 (USB4C00073)
Spectra Averaged: 10 (USB4C00073)
Boxcar Smoothing: 0 (USB4C00073)
Correct for Electrical Dark: No (USB4C00073)
Strobe/Lamp Enabled: No (USB4C00073)
Correct for Detector Non-linearity: No (USB4C00073)
Correct for Stray Light: No (USB4C00073)
Number of Pixels in Processed Spectrum: 3648
>>>>>Begin Processed Spectral Data<<<<<
345.37	1269.33
345.58	1269.33
345.80	1269.33
346.01	1250.49
346.22	1267.69
346.43	2004.76
346.65	1773.34
346.86	2117.39
347.07	2082.37
347.28	1792.79
347.50	1794.64
347.71	1923.25
347.92	1732.17
348.13	1803.24
348.35	1707.60
348.56	1894.78
348.77	1772.11
348.98	1814.09
349.20	1682.00
349.41	1921.40
349.62	1991.44
349.83	1877.17
350.05	1728.49
350.26	1939.43
350.47	2063.33
350.68	1764.94
350.90	1725.82
351.11	2077.46
351.32	2084.42
351.53	1814.71
351.75	1747.12
351.96	1953.35
352.17	1908.71
352.38	1843.38
352.60	1880.24
352.81	1941.27
353.02	2119.03
353.23	1770.06
353.44	1797.71
353.66	1838.67
353.87	1883.52
354.08	1905.23
354.29	1802.01
354.51	1871.02
354.72	1880.24
354.93	1812.86
355.14	1730.12
355.35	1782.35
355.57	2051.45
355.78	1815.11
355.99	1889.25
356.20	1951.51
356.42	1913.62
356.63	1921.61
356.84	1832.11
357.05	2040.19
357.26	2182.73
357.48	1864.68
357.69	1839.28
357.90	1948.85
358.11	1862.63
358.32	1817.57
358.54	1839.49
358.75	1867.54
358.96	1998.00
359.17	1793.61
359.38	1797.50
359.60	2014.38
359.81	1918.74
360.02	1814.91
360.23	1767.60
360.44	1838.05
360.66	2066.40
360.87	1736.88
361.08	1747.53
361.29	1958.47
361.50	1919.56
361.72	1767.19
361.93	1845.83
362.14	1926.11
362.35	1734.42
362.56	1907.68
362.77	1720.50
362.99	2019.09
363.20	1946.80
363.41	1906.66
363.62	1725.62
363.83	1988.58
364.05	2031.38
364.26	1705.14
364.47	1761.66
364.68	2055.55
364.89	1827.81
365.10	1744.66
365.32	1816.75
365.53	1815.93
365.74	1837.03
365.95	1801.60
366.16	1688.35
366.37	1904.41
366.59	1873.28
366.80	1804.67
367.01	1678.11
367.22	2163.88
367.43	2286.56
367.64	1822.28
367.86	1791.15
368.07	1975.47
368.28	2072.95
368.49	1738.93
368.70	1835.39
368.91	1861.19
369.12	1885.56
369.34	1693.87
369.55	1734.22
369.76	1910.35
369.97	1846.04
370.18	1747.33
370.39	1745.69
370.60	1747.74
370.82	1782.96
371.03	1790.54
371.24	1748.15
371.45	1993.49
371.66	1965.85
371.87	1804.47
372.08	1740.98
372.30	1746.51
372.51	1980.39
372.72	1869.39
372.93	1767.81
373.14	2076.85
373.35	1823.10
373.56	1759.00
373.78	1805.69
373.99	2013.97
374.20	2287.17
374.41	1800.16
374.62	1816.96
374.83	2106.13
375.04	1865.70
375.25	1828.22
375.47	1781.12
375.68	1847.47
375.89	2012.13
376.10	1817.78
376.31	1907.89
376.52	1974.86
376.73	1972.19
376.94	1815.11
377.15	1779.48
377.37	1905.63
377.58	1887.82
377.79	1698.79
378.00	1733.40
378.21	1949.26
378.42	1986.73
378.63	1804.87
378.84	1860.78
379.05	2034.86
379.27	1918.33
379.48	1930.01
379.69	1751.83
379.90	2068.24
380.11	1690.19
380.32	1806.51
380.53	1914.65
380.74	2051.25
380.95	1904.41
381.16	1799.14
381.37	1791.36
381.59	2084.63
381.80	2010.70
382.01	1745.89
382.22	1713.54
382.43	1991.04
382.64	1945.78
382.85	1762.89
383.06	1866.31
383.27	2005.58
383.48	1922.22
383.69	1848.09
383.91	1758.18
384.12	2001.68
384.33	1972.40
384.54	1801.19
384.75	1694.28
384.96	2259.11
385.17	2017.66
385.38	1758.18
385.59	1779.89
385.80	2010.49
386.01	2081.76
386.22	1888.43
386.43	1778.25
386.64	2193.58
386.86	1894.99
387.07	1904.61
387.28	1710.26
387.49	1856.89
387.70	2044.08
387.91	1864.68
388.12	1730.33
388.33	1945.57
388.54	1826.79
388.75	1799.55
388.96	1865.09
389.17	1847.88
389.38	1913.62
389.59	1879.22
389.80	1822.49
390.01	1915.06
390.22	1847.47
390.43	1899.08
390.64	1674.62
390.86	1977.52
391.07	2038.75
391.28	1816.34
391.49	1834.37
391.70	1737.50
391.91	1815.32
392.12	1807.95
392.33	1816.75
392.54	1908.71
392.75	1861.40
392.96	1850.34
393.17	1754.49
393.38	2187.85
393.59	2056.37
393.80	1739.54
394.01	1895.40
394.22	1985.30
394.43	2280.41
394.64	1871.84
394.85	2022.37
395.06	2028.72
395.27	1990.42
395.48	1846.24
395.69	1743.85
395.90	1894.58
396.11	1888.23
396.32	1796.68
396.53	1897.44
396.74	1900.51
396.95	2040.60
397.16	1770.47
397.37	1686.71
397.58	2024.42
397.79	1899.08
398.00	1846.65
398.21	1777.64
398.42	1927.96
398.63	2194.81
398.84	1810.61
399.05	1771.49
399.26	2068.24
399.47	1951.92
399.68	1648.00
399.89	1744.87
400.10	1792.18
400.31	1868.98
400.52	1821.67
400.73	1769.85
400.94	1724.80
401.15	1935.74
401.36	1779.28
401.57	1872.05
401.78	2053.91
401.99	2024.42
402.20	1721.93
402.41	1922.22
402.62	2099.99
402.83	1857.92
403.04	1770.67
403.25	1954.17
403.46	2001.68
403.67	2206.89
403.88	1966.87
404.09	1989.60
404.30	2035.89
404.51	1968.30
404.72	1840.51
404.93	1954.58
405.14	1861.19
405.35	1931.64
405.56	1828.63
405.77	1783.58
405.98	1941.27
406.19	1876.96
406.40	1740.57
406.61	1784.80
406.82	1816.34
407.03	2194.81
407.24	1701.25
407.45	1837.85
407.66	1943.32
407.87	2025.85
408.08	1831.29
408.29	1859.76
408.49	1969.33
408.70	1884.34
408.91	1810.81
409.12	1893.14
409.33	1790.54
409.54	2046.33
409.75	1803.24
409.96	1797.09
410.17	2016.63
410.38	1901.95
410.59	1776.61
410.80	1873.28
411.01	1892.94
411.22	1891.91
411.43	1867.34
411.64	1770.26
411.85	1793.20
412.06	1818.39
412.27	1636.74
412.47	1789.72
412.68	1901.95
412.89	1950.28
413.10	1802.42
413.31	1711.49
413.52	2153.23
413.73	2173.30
413.94	1766.37
414.15	1930.01
414.36	1873.89
414.57	1805.69
414.78	1819.42
414.99	2290.45
415.19	2844.63
415.40	2980.41
415.61	3189.51
415.82	3015.63
416.03	2867.57
416.24	2586.58
416.45	2269.56
416.66	2010.29
416.87	1859.97
417.08	2051.04
417.29	1879.83
417.50	1999.84
417.70	2152.21
417.91	2173.51
418.12	2149.14
418.33	2250.10
418.54	2470.67
418.75	2642.70
418.96	2682.63
419.17	2992.08
419.38	3613.23
419.59	3655.83
419.79	3506.74
420.00	3325.90
420.21	3306.24
420.42	2611.57
420.63	2285.94
420.84	2078.07
421.05	1963.18
421.26	1938.40
421.47	1732.79
421.67	2047.97
421.88	1794.64
422.09	1755.93
422.30	1952.74
422.51	1796.07
422.72	2141.15
422.93	1990.83
423.14	1825.35
423.35	1694.90
423.55	1713.54
423.76	1854.85
423.97	1846.04
424.18	1739.95
424.39	1944.14
424.60	2092.00
424.81	1923.04
425.02	2122.72
425.22	2242.32
425.43	2260.34
425.64	2434.83
425.85	2462.48
426.06	2735.88
426.27	2652.32
426.48	2669.73
426.68	2627.95
426.89	2678.54
427.10	2741.62
427.31	2290.45
427.52	2005.99
427.73	2165.52
427.94	2051.45
428.14	1940.86
428.35	1836.00
428.56	2097.32
428.77	2013.56
428.98	1927.55
429.19	2066.40
429.40	2223.68
429.60	2291.88
429.81	2346.77
430.02	2253.99
430.23	2160.40
430.44	2161.02
430.65	1893.55
430.85	1931.23
431.06	1989.40
431.27	1723.57
431.48	1810.20
431.69	1851.36
431.90	1936.15
432.10	1917.10
432.31	1889.25
432.52	1971.37
432.73	2605.63
432.94	2631.84
433.15	2475.38
433.35	2342.06
433.56	2493.61
433.77	2229.01
433.98	2241.09
434.19	2032.20
434.40	2084.01
434.60	1998.41
434.81	1906.86
435.02	1905.02
435.23	1910.55
435.44	1881.47
435.64	1714.76
435.85	1782.14
436.06	1919.97
436.27	1838.26
436.48	1728.08
436.68	1791.77
436.89	2116.99
437.10	1972.81
437.31	1814.09
437.52	1900.31
437.73	1928.37
437.93	1905.43
438.14	1872.66
438.35	1686.91
438.56	1859.97
438.77	1885.16
438.97	1930.21
439.18	1773.34
439.39	2037.93
439.60	1754.49
439.80	1688.14
440.01	1819.42
440.22	1843.99
440.43	1980.39
440.64	1712.31
440.84	1833.75
441.05	1778.46
441.26	2270.38
441.47	1870.41
441.68	1770.26
441.88	1900.11
442.09	1881.47
442.30	1935.94
442.51	1850.75
442.71	1866.93
442.92	1933.49
443.13	1753.27
443.34	1753.88
443.55	1774.77
443.75	1992.26
443.96	1745.48
444.17	1733.40
444.38	2046.33
444.58	1801.60
444.79	1893.76
445.00	1846.04
445.21	1900.51
445.41	1867.13
445.62	1634.28
445.83	1881.06
446.04	1924.68
446.24	1762.48
446.45	1648.00
446.66	1800.78
446.87	1943.93
447.07	1853.62
447.28	2015.41
447.49	1819.21
447.70	2038.55
447.90	2017.66
448.11	1822.28
448.32	1884.13
448.53	2068.86
448.73	2059.44
448.94	1831.91
449.15	1934.51
449.36	1932.26
449.56	1971.37
449.77	1794.64
449.98	1734.22
450.19	1944.75
450.39	2048.58
450.60	2038.55
450.81	2066.40
451.02	2138.90
451.22	2232.29
451.43	1890.07
451.64	1906.45
451.84	1969.74
452.05	2180.47
452.26	1952.74
452.47	1860.37
452.67	1889.25
452.88	2119.65
453.09	1777.64
453.30	1757.16
453.50	2031.79
453.71	2121.70
453.92	1810.61
454.12	1901.13
454.33	1837.03
454.54	1848.29
454.75	1746.71
454.95	1756.54
455.16	1944.96
455.37	2003.12
455.57	1813.89
455.78	1815.32
455.99	1907.07
456.19	1921.81
456.40	1761.46
456.61	1843.38
456.82	1925.09
457.02	1988.99
457.23	1866.11
457.44	2004.14
457.64	1842.56
457.85	1984.69
458.06	1832.73
458.26	1871.02
458.47	1953.35
458.68	2073.98
458.89	1795.04
459.09	2015.82
459.30	2253.99
459.51	2026.67
459.71	1776.61
459.92	1830.68
460.13	1991.04
460.33	2191.12
460.54	1851.16
460.75	1830.06
460.95	1769.65
461.16	1955.81
461.37	1800.37
461.57	1839.08
461.78	1901.95
461.99	1805.49
462.19	2066.61
462.40	1848.29
462.61	2248.26
462.81	2108.38
463.02	1807.54
463.23	1833.34
463.43	2030.77
463.64	1895.80
463.85	2754.11
464.05	1816.96
464.26	2380.76
464.47	2139.72
464.67	2004.35
464.88	1911.16
465.09	1826.17
465.29	1932.87
465.50	1928.78
465.71	1844.81
465.91	1863.65
466.12	1909.12
466.33	1882.49
466.53	1826.38
466.74	2077.05
466.94	1878.81
467.15	1839.28
467.36	2027.49
467.56	1813.89
467.77	1981.00
467.98	1864.88
468.18	1777.02
468.39	1860.78
468.60	2156.72
468.80	1855.46
469.01	1793.82
469.21	1994.11
469.42	2088.11
469.63	1926.52
469.83	1863.86
470.04	2122.11
470.25	2250.31
470.45	1956.22
470.66	1856.69
470.86	1981.20
471.07	1933.28
471.28	1947.82
471.48	1992.88
471.69	1953.76
471.90	2389.16
472.10	1813.68
472.31	1835.80
472.51	1831.91
472.72	1849.52
472.93	1764.94
473.13	1925.09
473.34	1911.16
473.54	1898.26
473.75	1848.91
473.96	1991.44
474.16	1920.79
474.37	2001.28
474.57	1957.04
474.78	1865.70
474.99	2044.69
475.19	2038.96
475.40	1860.17
475.60	1765.55
475.81	2119.85
476.02	1950.08
476.22	1981.00
476.43	2081.97
476.63	2013.97
476.84	2180.88
477.05	1788.08
477.25	1824.74
477.46	2318.71
477.66	1939.43
477.87	1746.30
478.08	1830.88
478.28	2052.27
478.49	1918.54
478.69	1802.83
478.90	1842.76
479.10	2019.30
479.31	2130.71
479.52	1932.67
479.72	1997.59
479.93	2034.86
480.13	1864.88
480.34	1809.79
480.54	1904.20
480.75	1808.77
480.96	2053.09
481.16	1799.55
481.37	1942.70
481.57	2026.87
481.78	1960.11
481.98	2011.92
482.19	1898.88
482.40	2180.47
482.60	2049.81
482.81	1988.17
483.01	1889.46
483.22	2109.20
483.42	2098.76
483.63	1990.63
483.83	1946.18
484.04	1876.96
484.24	2014.38
484.45	1911.78
484.66	1745.89
484.86	1966.87
485.07	1857.10
485.27	1899.08
485.48	1819.42
485.68	2121.08
485.89	1836.21
486.09	1945.57
486.30	1830.68
486.50	1947.00
486.71	2007.83
486.91	2039.16
487.12	2070.91
487.33	2319.94
487.53	2327.31
487.74	2075.41
487.94	2077.66
488.15	2207.71
488.35	2290.86
488.56	2154.87
488.76	2147.30
488.97	2127.23
489.17	2150.78
489.38	1974.86
489.58	1944.34
489.79	2037.93
489.99	2002.30
490.20	1913.42
490.40	1948.85
490.61	2024.62
490.81	1901.13
491.02	1887.41
491.22	1951.30
491.43	2050.84
491.63	1956.01
491.84	2028.10
492.04	1781.94
492.25	2029.54
492.45	1919.56
492.66	1819.83
492.86	1757.36
493.07	1895.19
493.27	2219.38
493.48	1762.48
493.68	1880.65
493.89	1913.83
494.09	2028.92
494.30	1839.90
494.50	2106.54
494.71	2059.44
494.91	1869.59
495.12	1949.87
495.32	2062.71
495.53	2044.08
495.73	1833.75
495.94	1879.63
496.14	1728.49
496.35	2193.17
496.55	1912.39
496.76	1849.93
496.96	1945.98
497.17	1959.70
497.37	2028.92
497.58	1851.16
497.78	1789.92
497.98	1922.84
498.19	1925.09
498.39	1930.42
498.60	1974.24
498.80	1800.16
499.01	2094.25
499.21	1819.42
499.42	1902.15
499.62	1922.84
499.83	2223.89
500.03	1734.22
500.24	1930.42
500.44	2115.76
500.64	2074.59
500.85	1850.34
501.05	1987.96
501.26	1749.99
501.46	2095.28
501.67	1808.97
501.87	1748.35
502.08	1821.46
502.28	1924.07
502.48	1954.99
502.69	2027.90
502.89	1809.38
503.10	1927.75
503.30	1958.06
503.51	1945.16
503.71	1828.84
503.92	2058.21
504.12	2015.20
504.32	1995.13
504.53	2173.71
504.73	2210.58
504.94	2160.81
505.14	2286.56
505.35	2354.96
505.55	2289.01
505.75	2229.62
505.96	2312.16
506.16	2384.86
506.37	2073.36
506.57	1953.76
506.78	2044.49
506.98	2172.49
507.18	1884.34
507.39	1856.48
507.59	1952.74
507.80	1944.96
508.00	2037.11
508.20	2118.83
508.41	1989.81
508.61	2173.51
508.82	2113.71
509.02	1995.75
509.22	1829.45
509.43	1847.47
509.63	1850.54
509.84	1900.31
510.04	1773.34
510.24	2124.97
510.45	2040.60
510.65	1788.49
510.86	1916.28
511.06	1839.90
511.26	2082.99
511.47	2052.88
511.67	1885.56
511.88	2059.23
512.08	2097.73
512.28	1809.79
512.49	1974.65
512.69	1963.39
512.90	1961.13
513.10	1853.00
513.30	1910.55
513.51	2016.43
513.71	2121.90
513.91	1938.81
514.12	1973.22
514.32	2131.53
514.53	2019.50
514.73	2120.67
514.93	2095.69
515.14	2198.90
515.34	2474.77
515.54	2358.85
515.75	2473.74
515.95	2585.36
516.15	2624.88
516.36	2305.60
516.56	2189.69
516.77	1871.23
516.97	2175.35
517.17	2013.36
517.38	2122.72
517.58	2278.37
517.78	2176.99
517.99	2384.86
518.19	2498.73
518.39	2742.64
518.60	2598.87
518.80	2375.64
519.00	2341.03
519.21	2151.80
519.41	2336.53
519.61	1951.71
519.82	2054.32
520.02	2033.22
520.22	2040.80
520.43	2014.79
520.63	2046.74
520.83	1983.46
521.04	1927.55
521.24	2317.69
521.44	2356.19
521.65	2440.36
521.85	2667.48
522.05	2388.14
522.26	2269.35
522.46	2454.70
522.66	2215.49
522.87	1987.35
523.07	2171.05
523.27	2004.96
523.48	2208.32
523.68	2079.10
523.88	2082.17
524.09	2205.46
524.29	2138.90
524.49	2000.66
524.70	2317.07
524.90	2475.79
525.10	2403.91
525.31	2097.73
525.51	2068.65
525.71	2165.32
525.91	2088.31
526.12	1902.56
526.32	1807.74
526.52	1901.13
526.73	1863.24
526.93	1952.53
527.13	1799.75
527.34	1926.52
527.54	1990.63
527.74	1930.21
527.94	1888.84
528.15	1889.05
528.35	2025.85
528.55	2012.54
528.76	1978.54
528.96	1782.55
529.16	2069.47
529.36	2026.06
529.57	1779.89
529.77	2085.45
529.97	1840.92
530.18	1967.28
530.38	1884.54
530.58	2014.18
530.78	1975.68
530.99	1863.04
531.19	2024.01
531.39	1905.23
531.60	1989.60
531.80	1895.80
532.00	2028.31
532.20	2003.12
532.41	1872.25
532.61	1850.13
532.81	1873.48
533.01	1902.36
533.22	1968.71
533.42	1997.18
533.62	1732.38
533.82	2076.85
534.03	1918.95
534.23	1949.67
534.43	1842.15
534.63	1885.97
534.84	1967.69
535.04	1935.94
535.24	1893.76
535.44	2295.36
535.65	1866.72
535.85	1846.24
536.05	1826.38
536.25	1906.25
536.46	1886.59
536.66	2118.21
536.86	2008.44
537.06	2122.31
537.27	2190.92
537.47	2016.63
537.67	1910.75
537.87	2158.35
538.08	1950.69
538.28	1840.92
538.48	1881.06
538.68	1983.25
538.88	2098.35
539.09	1819.62
539.29	1930.42
539.49	2081.15
539.69	1999.84
539.90	1977.11
540.10	1876.96
540.30	2174.94
540.50	1946.59
540.70	1885.97
540.91	2012.13
541.11	2205.05
541.31	2366.84
541.51	2214.47
541.72	2263.42
541.92	2288.61
542.12	2114.53
542.32	2049.40
542.52	1989.40
542.73	1966.25
542.93	2089.34
543.13	1964.82
543.33	2131.53
543.53	2234.74
543.74	2260.14
543.94	2122.51
544.14	2324.03
544.34	2506.92
544.54	2385.06
544.75	2520.44
544.95	2657.24
545.15	2575.32
545.35	2563.44
545.55	2320.35
545.75	2134.19
545.96	2427.25
546.16	2021.75
546.36	2019.50
546.56	2061.28
546.76	2191.12
546.97	2260.14
547.17	1982.43
547.37	2021.35
547.57	1899.08
547.77	2081.97
547.97	1974.65
548.18	1956.01
548.38	2065.17
548.58	2625.09
548.78	2716.22
548.98	3163.09
549.18	3537.66
549.39	3710.92
549.59	3284.94
549.79	2965.66
549.99	3015.63
550.19	2776.23
550.39	2648.23
550.60	2373.39
550.80	2333.25
551.00	2312.36
551.20	2120.67
551.40	2006.19
551.60	2150.78
551.80	2089.34
552.01	2130.91
552.21	2044.49
552.41	2106.54
552.61	2298.23
552.81	2052.88
553.01	1883.72
553.21	2069.68
553.42	1862.01
553.62	1897.44
553.82	1882.90
554.02	2161.84
554.22	2073.36
554.42	1851.36
554.62	1995.13
554.83	2413.53
555.03	2725.64
555.23	2743.46
555.43	3183.77
555.63	3213.26
555.83	2976.31
556.03	2668.09
556.23	2451.83
556.44	2595.60
556.64	2642.29
556.84	2275.09
557.04	2460.02
557.24	2485.82
557.44	2327.93
557.64	2198.29
557.84	2025.44
558.04	2042.23
558.25	2176.58
558.45	1964.62
558.65	2056.37
558.85	2102.65
559.05	1936.76
559.25	2082.58
559.45	2221.43
559.65	2722.77
559.85	3252.38
560.05	2730.15
560.26	2876.99
560.46	2894.80
560.66	2663.59
560.86	2429.71
561.06	2255.84
561.26	2508.56
561.46	2317.48
561.66	2144.43
561.86	2227.17
562.06	2022.78
562.26	2072.34
562.47	2023.80
562.67	1888.84
562.87	2100.19
563.07	1865.49
563.27	2045.10
563.47	2049.81
563.67	1976.49
563.87	2167.57
564.07	2089.13
564.27	2241.50
564.47	2315.64
564.67	2452.65
564.87	2324.24
565.08	2384.25
565.28	2229.42
565.48	2267.92
565.68	2205.46
565.88	2165.11
566.08	2306.42
566.28	2045.31
566.48	1859.76
566.68	1905.23
566.88	1921.81
567.08	2074.59
567.28	1980.39
567.48	1972.19
567.68	2117.39
567.88	1942.09
568.08	2173.92
568.28	2258.91
568.48	2132.14
568.68	2280.62
568.89	2084.22
569.09	1862.83
569.29	2117.80
569.49	2111.66
569.69	1881.06
569.89	1859.97
570.09	1753.06
570.29	1871.23
570.49	1780.71
570.69	1820.85
570.89	2047.97
571.09	2186.82
571.29	1767.60
571.49	2023.19
571.69	1968.51
571.89	1975.47
572.09	1861.81
572.29	1840.10
572.49	2037.32
572.69	2011.72
572.89	1983.66
573.09	1816.55
573.29	2114.94
573.49	2207.30
573.69	2177.20
573.89	2235.77
574.09	2041.82
574.29	2203.41
574.49	1933.49
574.69	1879.63
574.89	1847.06
575.09	1839.90
575.29	1831.09
575.49	1933.08
575.69	1965.85
575.89	1789.11
576.09	1958.06
576.29	1979.36
576.49	1847.27
576.69	1976.29
576.89	1945.16
577.09	2017.66
577.29	1852.59
577.49	2249.69
577.69	1892.12
577.89	2015.61
578.09	2005.17
578.29	1806.10
578.49	1976.29
578.69	1876.35
578.89	2050.02
579.09	1982.43
579.29	1859.35
579.49	2076.64
579.69	1932.46
579.89	2224.50
580.09	1802.21
580.29	1771.29
580.49	1902.97
580.69	1805.08
580.89	1875.32
581.09	1865.29
581.29	1863.04
581.49	1896.83
581.69	1805.90
581.89	1810.20
582.09	1806.92
582.28	1826.17
582.48	2050.22
582.68	2180.06
582.88	2265.05
583.08	2064.76
583.28	2076.64
583.48	2037.11
583.68	1932.26
583.88	2011.11
584.08	1988.58
584.28	1925.91
584.48	2188.46
584.68	1997.79
584.88	1894.58
585.08	2071.52
585.28	2124.15
585.48	2131.12
585.68	2074.59
585.87	2059.85
586.07	2038.55
586.27	1964.41
586.47	2010.90
586.67	1938.40
586.87	1957.65
587.07	1903.79
587.27	1865.90
587.47	2045.10
587.67	2387.52
587.87	2761.89
588.07	2628.36
588.27	2655.19
588.46	2934.12
588.66	2929.00
588.86	2599.28
589.06	2501.80
589.26	2448.76
589.46	2348.20
589.66	2031.58
589.86	1980.18
590.06	2071.52
590.26	2306.22
590.46	2204.23
590.66	2378.92
590.85	2347.38
591.05	2416.40
591.25	2130.30
591.45	2163.88
591.65	2282.26
591.85	2275.70
592.05	2260.96
592.25	2413.74
592.45	2537.84
592.64	2385.27
592.84	2291.88
593.04	2081.97
593.24	2551.97
593.44	2139.10
593.64	2208.32
593.84	2256.86
594.04	2130.30
594.24	2334.48
594.43	2029.54
594.63	2056.98
