SpectraSuite Data File
++++++++++++++++++++++++++++++++++++
Date: Thu Mar 30 15:51:41 PDT 2017
User: UCSD _CER
Dark Spectrum Present: No
Reference Spectrum Present: No
Number of Sampled Component Spectra: 1
Spectrometers: USB4C00073
Integration Time (usec): 250000 (USB4C00073)
Spectra Averaged: 10 (USB4C00073)
Boxcar Smoothing: 0 (USB4C00073)
Correct for Electrical Dark: No (USB4C00073)
Strobe/Lamp Enabled: No (USB4C00073)
Correct for Detector Non-linearity: No (USB4C00073)
Correct for Stray Light: No (USB4C00073)
Number of Pixels in Processed Spectrum: 3648
>>>>>Begin Processed Spectral Data<<<<<
345.37	1262.16
345.58	1262.16
345.80	1262.16
346.01	1267.90
346.22	1286.33
346.43	1974.65
346.65	1790.95
346.86	2115.35
347.07	2085.65
347.28	1777.43
347.50	1774.56
347.71	1897.44
347.92	1736.68
348.13	1810.20
348.35	1729.51
348.56	1932.26
348.77	1794.02
348.98	1795.45
349.20	1680.56
349.41	1929.39
349.62	1981.41
349.83	1837.64
350.05	1738.52
350.26	1965.44
350.47	2095.28
350.68	1770.88
350.90	1736.27
351.11	2110.43
351.32	2082.17
351.53	1814.30
351.75	1756.95
351.96	1967.07
352.17	1898.88
352.38	1844.40
352.60	1902.97
352.81	1938.40
353.02	2151.39
353.23	1797.91
353.44	1830.27
353.66	1879.63
353.87	1914.65
354.08	1894.58
354.29	1829.66
354.51	1856.89
354.72	1904.20
354.93	1779.48
355.14	1729.10
355.35	1745.07
355.57	2055.34
355.78	1831.70
355.99	1899.90
356.20	1950.28
356.42	1899.90
356.63	1924.07
356.84	1852.39
357.05	2060.46
357.26	2237.82
357.48	1913.62
357.69	1897.44
357.90	1987.35
358.11	1880.65
358.32	1849.93
358.54	1869.39
358.75	1888.43
358.96	2030.77
359.17	1819.62
359.38	1832.93
359.60	2002.50
359.81	1933.90
360.02	1837.44
360.23	1778.66
360.44	1846.65
360.66	2032.61
360.87	1790.33
361.08	1762.07
361.29	1950.90
361.50	1947.21
361.72	1790.74
361.93	1859.97
362.14	1918.54
362.35	1758.80
362.56	1883.93
362.77	1726.85
362.99	1988.99
363.20	1914.03
363.41	1853.82
363.62	1741.59
363.83	1967.28
364.05	2054.32
364.26	1704.32
364.47	1793.00
364.68	2047.15
364.89	1831.29
365.10	1735.24
365.32	1823.92
365.53	1824.13
365.74	1858.12
365.95	1815.32
366.16	1704.32
366.37	1897.65
366.59	1872.87
366.80	1808.56
367.01	1693.67
367.22	2164.29
367.43	2295.98
367.64	1817.57
367.86	1803.03
368.07	1972.19
368.28	2089.54
368.49	1718.04
368.70	1840.51
368.91	1894.37
369.12	1900.51
369.34	1704.93
369.55	1744.66
369.76	1910.75
369.97	1884.75
370.18	1748.15
370.39	1745.28
370.60	1747.33
370.82	1777.84
371.03	1828.02
371.24	1745.07
371.45	2003.73
371.66	1994.52
371.87	1803.24
372.08	1828.22
372.30	1814.91
372.51	2066.81
372.72	1922.43
372.93	1827.61
373.14	2159.79
373.35	1832.52
373.56	1779.07
373.78	1846.45
373.99	2026.67
374.20	2291.47
374.41	1815.32
374.62	1829.86
374.83	2087.29
375.04	1882.70
375.25	1813.68
375.47	1770.67
375.68	1858.53
375.89	2006.39
376.10	1840.51
376.31	1934.72
376.52	1967.89
376.73	1956.42
376.94	1832.73
377.15	1772.93
377.37	1910.14
377.58	1914.03
377.79	1717.84
378.00	1755.31
378.21	1974.24
378.42	2022.57
378.63	1860.17
378.84	1916.69
379.05	2064.35
379.27	1962.77
379.48	1939.84
379.69	1785.01
379.90	2076.44
380.11	1720.09
380.32	1831.50
380.53	1933.69
380.74	2098.35
380.95	1968.51
381.16	1834.37
381.37	1820.44
381.59	2130.71
381.80	2058.82
382.01	1795.66
382.22	1739.14
382.43	2009.67
382.64	1941.27
382.85	1777.84
383.06	1897.44
383.27	2038.34
383.48	1932.26
383.69	1875.94
383.91	1825.35
384.12	2073.36
384.33	2090.36
384.54	1931.64
384.75	1826.38
384.96	2443.43
385.17	2148.11
385.38	1916.28
385.59	1882.08
385.80	2067.83
386.01	2176.79
386.22	1976.09
386.43	1926.32
386.64	2270.58
386.86	1961.75
387.07	2026.06
387.28	1809.79
387.49	1929.39
387.70	2149.55
387.91	1969.12
388.12	1845.22
388.33	2054.11
388.54	1913.42
388.75	1853.21
388.96	1894.58
389.17	1869.18
389.38	1895.19
389.59	1894.99
389.80	1866.11
390.01	1934.72
390.22	1881.47
390.43	1958.27
390.64	1716.61
390.86	2016.84
391.07	2072.34
391.28	1865.49
391.49	1868.16
391.70	1780.30
391.91	1833.75
392.12	1844.81
392.33	1854.85
392.54	1956.83
392.75	1941.47
392.96	1931.03
393.17	1797.50
393.38	2211.60
393.59	2076.23
393.80	1778.46
394.01	1853.82
394.22	2010.70
394.43	2223.89
394.64	1814.09
394.85	1976.90
395.06	1937.17
395.27	1943.32
395.48	1831.50
395.69	1751.42
395.90	1873.07
396.11	1915.06
396.32	1796.48
396.53	1947.21
396.74	1922.02
396.95	2072.13
397.16	1800.57
397.37	1724.39
397.58	2048.79
397.79	1880.24
398.00	1872.66
398.21	1826.38
398.42	1936.35
398.63	2183.54
398.84	1829.66
399.05	1780.09
399.26	2074.80
399.47	1991.85
399.68	1651.07
399.89	1766.58
400.10	1811.22
400.31	1889.66
400.52	1875.73
400.73	1878.19
400.94	1806.92
401.15	2031.79
401.36	1859.76
401.57	1917.31
401.78	2109.82
401.99	2078.48
402.20	1763.51
402.41	1941.06
402.62	2130.30
402.83	1897.85
403.04	1816.75
403.25	1982.43
403.46	2016.02
403.67	2177.81
403.88	1933.08
404.09	1920.79
404.30	1996.16
404.51	1951.71
404.72	1811.22
404.93	1988.17
405.14	1845.83
405.35	1931.85
405.56	1849.93
405.77	1813.89
405.98	1976.09
406.19	1927.96
406.40	1827.61
406.61	1865.90
406.82	1930.42
407.03	2318.92
407.24	1826.99
407.45	1925.50
407.66	2048.38
407.87	2089.75
408.08	1901.95
408.29	1927.14
408.49	1994.31
408.70	1927.96
408.91	1846.65
409.12	1915.47
409.33	1810.20
409.54	2099.17
409.75	1804.06
409.96	1832.11
410.17	2063.12
410.38	1923.25
410.59	1840.92
410.80	1917.10
411.01	1922.02
411.22	1904.00
411.43	1867.34
411.64	1777.43
411.85	1832.93
412.06	1815.52
412.27	1664.59
412.47	1799.14
412.68	1931.64
412.89	2009.06
413.10	1797.71
413.31	1759.00
413.52	2192.15
413.73	2197.27
413.94	1811.84
414.15	1926.73
414.36	1861.40
414.57	1827.81
414.78	1779.68
414.99	2009.47
415.19	2376.46
415.40	2402.27
415.61	2521.25
415.82	2355.16
416.03	2405.34
416.24	2244.98
416.45	2022.98
416.66	1905.02
416.87	1825.35
417.08	2038.96
417.29	1845.42
417.50	1941.88
417.70	2086.68
417.91	2084.01
418.12	1987.35
418.33	2028.72
418.54	2211.81
418.75	2336.12
418.96	2377.90
419.17	2534.16
419.38	2984.10
419.59	2923.48
419.79	2776.84
420.00	2634.10
420.21	2826.61
420.42	2317.89
420.63	2046.13
420.84	2003.12
421.05	1980.18
421.26	1933.08
421.47	1779.07
421.67	2105.72
421.88	1867.95
422.09	1854.23
422.30	2049.81
422.51	1945.37
422.72	2216.31
422.93	2090.77
423.14	1882.29
423.35	1771.08
423.55	1774.16
423.76	1851.98
423.97	1855.46
424.18	1711.90
424.39	1908.09
424.60	2080.53
424.81	1906.45
425.02	2085.86
425.22	2197.47
425.43	2218.77
425.64	2411.69
425.85	2375.85
426.06	2681.41
426.27	2488.69
426.48	2375.64
426.68	2349.02
426.89	2462.68
427.10	2517.57
427.31	2135.01
427.52	1969.74
427.73	2165.52
427.94	2112.07
428.14	1995.75
428.35	1872.05
428.56	2127.63
428.77	2056.16
428.98	1932.87
429.19	1945.78
429.40	2057.80
429.60	2102.85
429.81	2152.01
430.02	2082.37
430.23	2010.29
430.44	2134.80
430.65	1881.26
430.85	1912.80
431.06	2028.10
431.27	1776.82
431.48	1825.76
431.69	1897.44
431.90	1947.00
432.10	1989.19
432.31	2008.44
432.52	2014.38
432.73	2590.48
432.94	2523.51
433.15	2365.61
433.35	2203.41
433.56	2372.57
433.77	2219.18
433.98	2638.19
434.19	2844.42
434.40	3063.15
434.60	3044.51
434.81	2930.85
435.02	2584.13
435.23	2396.94
435.44	2246.62
435.64	1956.22
435.85	1930.62
436.06	1938.20
436.27	1989.19
436.48	1889.46
436.68	1969.94
436.89	2364.99
437.10	2242.32
437.31	2091.80
437.52	2148.73
437.73	2190.92
437.93	2135.21
438.14	2005.17
438.35	1805.28
438.56	1916.90
438.77	1944.96
438.97	1984.48
439.18	1893.76
439.39	2295.77
439.60	2081.76
439.80	2048.38
440.01	2134.19
440.22	2061.89
440.43	2162.25
440.64	1840.71
440.84	1940.04
441.05	1857.30
441.26	2306.42
441.47	1916.08
441.68	1986.94
441.88	2290.65
442.09	2388.75
442.30	2655.81
442.51	2597.85
442.71	2519.82
442.92	2425.41
443.13	2140.95
443.34	2022.57
443.55	1977.11
443.75	2107.97
443.96	1823.31
444.17	1799.14
444.38	2063.74
444.58	1794.23
444.79	1893.55
445.00	1841.53
445.21	1913.21
445.41	1891.09
445.62	1658.85
445.83	1908.50
446.04	1962.98
446.24	1774.97
446.45	1664.38
446.66	1838.87
446.87	1994.11
447.07	1859.76
447.28	2027.08
447.49	1907.68
447.70	2127.02
447.90	2127.84
448.11	1902.77
448.32	1964.41
448.53	2156.51
448.73	2136.44
448.94	1835.18
449.15	1972.40
449.36	1942.50
449.56	1958.88
449.77	1833.75
449.98	1755.93
450.19	1920.79
450.39	2037.11
450.60	2033.43
450.81	2018.89
451.02	2090.57
451.22	2240.27
451.43	1882.90
451.64	1904.82
451.84	1948.64
452.05	2158.97
452.26	1906.66
452.47	1893.14
452.67	1889.25
452.88	2128.66
453.09	1815.52
453.30	1741.80
453.50	2034.25
453.71	2238.84
453.92	1989.60
454.12	2143.20
454.33	2071.32
454.54	2104.29
454.75	1873.28
454.95	1855.46
455.16	2013.15
455.37	2081.76
455.57	1878.19
455.78	1879.83
455.99	1936.97
456.19	1975.06
456.40	1781.94
456.61	1894.99
456.82	1931.03
457.02	2110.43
457.23	2082.37
457.44	2210.99
457.64	2063.94
457.85	2211.19
458.06	2031.18
458.26	2122.11
458.47	2081.56
458.68	2223.89
458.89	1961.13
459.09	2111.05
459.30	2309.29
459.51	2051.25
459.71	1817.57
459.92	1892.12
460.13	2200.13
460.33	2423.77
460.54	2070.91
460.75	2085.45
460.95	2037.32
461.16	2128.25
461.37	1905.63
461.57	1943.32
461.78	1987.96
461.99	1873.89
462.19	2109.41
462.40	1830.27
462.61	2229.83
462.81	2108.18
463.02	1801.39
463.23	1861.81
463.43	2024.83
463.64	1881.67
463.85	2713.76
464.05	1793.61
464.26	2332.02
464.47	2132.96
464.67	1995.54
464.88	1972.60
465.09	1994.31
465.29	2144.43
465.50	2215.90
465.71	2088.52
465.91	2034.66
466.12	2003.12
466.33	1941.68
466.53	1894.99
466.74	2175.76
466.94	1937.99
467.15	1878.40
467.36	2069.27
467.56	1820.64
467.77	1990.42
467.98	1903.38
468.18	1820.44
468.39	1897.65
468.60	2157.94
468.80	1906.45
469.01	1794.84
469.21	2004.14
469.42	2096.51
469.63	1927.75
469.83	1841.33
470.04	2101.63
470.25	2170.03
470.45	1946.80
470.66	1849.52
470.86	1992.47
471.07	1918.54
471.28	1933.28
471.48	2003.53
471.69	1993.90
471.90	2570.00
472.10	2103.67
472.31	2126.41
472.51	2148.11
472.72	2233.11
472.93	2157.94
473.13	2337.76
473.34	2384.65
473.54	2298.64
473.75	2117.19
473.96	2167.16
474.16	2032.40
474.37	2105.93
474.57	1952.33
474.78	1844.81
474.99	2019.71
475.19	1978.13
475.40	1863.65
475.60	1880.24
475.81	2348.20
476.02	2240.48
476.22	2219.59
476.43	2289.63
476.63	2097.53
476.84	2185.18
477.05	1781.73
477.25	1869.59
477.46	2390.18
477.66	1983.46
477.87	1772.11
478.08	1871.02
478.28	2073.98
478.49	1919.77
478.69	1830.68
478.90	1865.29
479.10	2002.71
479.31	2143.81
479.52	1930.42
479.72	2264.44
479.93	2615.87
480.13	2632.25
480.34	2657.03
480.54	2739.57
480.75	2370.11
480.96	2371.14
481.16	1998.41
481.37	2128.66
481.57	2178.42
481.78	2123.33
481.98	2173.51
482.19	1990.42
482.40	2245.80
482.60	2035.48
482.81	1954.58
483.01	1838.05
483.22	2075.00
483.42	2052.88
483.63	1957.45
483.83	1976.29
484.04	2022.57
484.24	2259.73
484.45	2147.30
484.66	1990.22
484.86	2134.80
485.07	1977.31
485.27	1964.21
485.48	1877.17
485.68	2160.40
485.89	1903.38
486.09	1982.43
486.30	1882.90
486.50	1973.83
486.71	1954.79
486.91	1966.25
487.12	2362.33
487.33	2961.98
487.53	3164.32
487.74	3045.74
487.94	2959.93
488.15	2637.17
488.35	2390.39
488.56	2192.35
488.76	2104.08
488.97	2105.11
489.17	2193.58
489.38	2037.32
489.58	2023.19
489.79	2108.38
489.99	2086.47
490.20	1943.52
490.40	1970.35
490.61	2018.07
490.81	1897.24
491.02	1899.70
491.22	1954.58
491.43	2065.99
491.63	1958.27
491.84	2009.88
492.04	1782.14
492.25	2025.24
492.45	1956.83
492.66	1934.72
492.86	1829.66
493.07	2031.59
493.27	2326.49
493.48	1795.45
493.68	1918.33
493.89	1946.39
494.09	2063.74
494.30	1844.81
494.50	2110.64
494.71	2013.97
494.91	1789.52
495.12	1858.12
495.32	1945.57
495.53	1969.33
495.73	1872.05
495.94	2070.70
496.14	1966.66
496.35	2433.60
496.55	2140.33
496.76	1994.31
496.96	2048.38
497.17	2011.72
497.37	2057.80
497.58	1894.37
497.78	1804.26
497.98	1956.01
498.19	1942.91
498.39	1909.53
498.60	1958.68
498.80	1738.32
499.01	2026.67
499.21	1794.84
499.42	1896.83
499.62	1905.43
499.83	2208.12
500.03	1801.39
500.24	2044.28
500.44	2291.47
500.64	2248.06
500.85	2097.32
501.05	2159.99
501.26	1916.69
501.46	2244.78
501.67	1909.73
501.87	1830.88
502.08	1899.08
502.28	1957.86
502.48	1976.29
502.69	1998.61
502.89	1785.83
503.10	1861.40
503.30	1927.34
503.51	1910.35
503.71	1814.30
503.92	2042.64
504.12	1956.63
504.32	1892.32
504.53	2053.29
504.73	2066.81
504.94	2024.42
505.14	2096.92
505.35	2103.88
505.55	2145.04
505.75	2084.01
505.96	2195.63
506.16	2387.73
506.37	2017.04
506.57	1893.55
506.78	1987.76
506.98	2118.83
507.18	1828.84
507.39	1828.84
507.59	1927.96
507.80	1908.71
508.00	2002.09
508.20	2069.68
508.41	1926.32
508.61	2098.35
508.82	2087.49
509.02	1998.82
509.22	1828.84
509.43	1827.20
509.63	1859.76
509.84	1898.26
510.04	1787.26
510.24	2134.19
510.45	2058.00
510.65	1803.44
510.86	1935.13
511.06	1830.06
511.26	2034.66
511.47	1968.92
511.67	1828.22
511.88	2008.03
512.08	2057.39
512.28	1799.14
512.49	2002.91
512.69	1962.16
512.90	2010.70
513.10	1840.51
513.30	1938.61
513.51	2041.42
513.71	2230.44
513.91	2099.17
514.12	2047.35
514.32	2173.30
514.53	1985.30
514.73	2020.53
514.93	1930.21
515.14	1994.31
515.34	2163.88
515.54	1957.45
515.75	1991.04
515.95	2076.23
516.15	2138.28
516.36	1999.23
516.56	2008.24
516.77	1723.57
516.97	2009.26
517.17	1880.44
517.38	1971.37
517.58	2133.98
517.78	1891.30
517.99	1975.27
518.19	1969.94
518.39	2160.81
518.60	1953.35
518.80	1880.65
519.00	2004.35
519.21	1965.03
519.41	2161.84
519.61	1860.58
519.82	1947.62
520.02	1936.56
520.22	1924.07
520.43	1869.39
520.63	1889.66
520.83	1858.74
521.04	1759.21
521.24	1936.56
521.44	1884.75
521.65	1849.52
521.85	1985.92
522.05	1804.06
522.26	1858.12
522.46	2167.98
522.66	2024.83
522.87	1893.35
523.07	2019.71
523.27	1857.30
523.48	2121.08
523.68	1936.76
523.88	1899.90
524.09	2098.76
524.29	1970.35
524.49	1721.11
524.70	1986.94
524.90	2111.25
525.10	2026.26
525.31	1792.79
525.51	1785.42
525.71	2037.93
525.91	2005.17
526.12	1826.17
526.32	1806.92
526.52	1876.35
526.73	1866.72
526.93	1935.13
527.13	1750.40
527.34	1933.28
527.54	1898.67
527.74	1839.90
527.94	1788.29
528.15	1819.21
528.35	1984.28
528.55	1977.52
528.76	1953.15
528.96	1763.10
529.16	2049.81
529.36	2009.26
529.57	1811.84
529.77	2059.44
529.97	1817.78
530.18	1968.30
530.38	1893.55
530.58	2029.13
530.78	1939.84
530.99	1855.87
531.19	1970.97
531.39	1865.70
531.60	1953.15
531.80	1860.37
532.00	1988.37
532.20	1963.39
532.41	1839.90
532.61	1866.93
532.81	1874.51
533.01	1924.07
533.22	1984.07
533.42	2049.61
533.62	1716.81
533.82	2111.87
534.03	1928.98
534.23	1961.75
534.43	1837.23
534.63	1900.31
534.84	1986.94
535.04	1945.78
535.24	1948.03
535.44	2303.15
535.65	1910.96
535.85	1851.36
536.05	1874.92
536.25	1958.88
536.46	1879.83
536.66	2076.85
536.86	1954.79
537.06	2037.93
537.27	2103.06
537.47	1996.77
537.67	1867.95
537.87	2116.99
538.08	1908.09
538.28	1815.32
538.48	1793.61
538.68	1942.29
538.88	2047.97
539.09	1757.36
539.29	1870.82
539.49	2068.45
539.69	1996.36
539.90	1969.33
540.10	1829.86
540.30	2135.21
540.50	1909.32
540.70	1785.21
540.91	1903.38
541.11	2071.11
541.31	2160.20
541.51	1976.90
541.72	1988.37
541.92	1976.29
542.12	1886.38
542.32	1907.27
542.52	1862.01
542.73	1875.12
542.93	2069.06
543.13	1904.20
543.33	1959.70
543.53	2068.86
543.74	2040.60
543.94	1886.79
544.14	2023.39
544.34	2165.73
544.54	2000.25
544.75	2021.35
544.95	2151.60
545.15	2086.47
545.35	2197.47
545.55	2067.42
545.75	1898.06
545.96	2239.04
546.16	1931.85
546.36	1926.32
546.56	1941.47
546.76	2103.88
546.97	2171.87
547.17	1948.23
547.37	1973.63
547.57	1910.75
547.77	2052.27
547.97	1951.30
548.18	1958.68
548.38	1951.71
548.58	2176.99
548.78	1895.80
548.98	2009.06
549.18	2159.79
549.39	2239.25
549.59	2065.99
549.79	2000.46
549.99	2184.36
550.19	2102.85
550.39	2040.19
550.60	1953.76
550.80	2034.04
551.00	2061.69
551.20	1895.40
551.40	1907.68
551.60	2002.09
551.80	2003.53
552.01	2038.34
552.21	1950.49
552.41	1965.03
552.61	2209.55
552.81	1998.00
553.01	1828.63
553.21	2009.67
553.42	1847.68
553.62	1862.83
553.82	1845.83
554.02	2157.33
554.22	2043.46
554.42	1830.47
554.62	1987.35
554.83	2165.93
555.03	2223.27
555.23	2030.15
555.43	2268.94
555.63	2162.04
555.83	2120.88
556.03	2020.12
556.23	1882.08
556.44	2042.03
556.64	2163.68
556.84	1734.02
557.04	1927.34
557.24	2027.69
557.44	2017.25
557.64	1958.68
557.84	1834.37
558.04	1893.76
558.25	2054.11
558.45	1877.78
558.65	1937.17
558.85	1951.71
559.05	1746.71
559.25	1888.43
559.45	1970.76
559.65	2258.30
559.85	2666.46
560.05	2044.49
560.26	2075.62
560.46	2115.76
560.66	2022.16
560.86	1965.23
561.06	1883.11
561.26	2195.42
561.46	2081.35
561.66	1904.61
561.86	2028.92
562.06	1874.10
562.26	1948.03
562.47	1956.22
562.67	1818.80
562.87	2004.96
563.07	1768.63
563.27	1941.47
563.47	1946.39
563.67	1889.87
563.87	2031.18
564.07	1893.96
564.27	1933.69
564.47	2027.90
564.67	2078.89
564.87	1896.01
565.08	2006.19
565.28	1950.49
565.48	2040.39
565.68	1990.83
565.88	2018.07
566.08	2215.08
566.28	1972.60
566.48	1803.65
566.68	1915.67
566.88	1917.51
567.08	2070.29
567.28	1917.51
567.48	1912.39
567.68	2009.47
567.88	1807.33
568.08	1977.93
568.28	2057.59
568.48	1941.68
568.68	2110.02
568.89	1952.53
569.09	1780.71
569.29	2044.08
569.49	2048.58
569.69	1848.50
569.89	1828.22
570.09	1736.47
570.29	1863.86
570.49	1786.24
570.69	1883.31
570.89	2033.63
571.09	2204.84
571.29	1778.66
571.49	2039.57
571.69	2005.37
571.89	2021.35
572.09	1873.69
572.29	1875.53
572.49	2064.97
572.69	2044.69
572.89	1942.29
573.09	1709.44
573.29	1974.86
573.49	1983.25
573.69	1945.16
573.89	2063.12
574.09	1897.65
574.29	2115.14
574.49	1902.36
574.69	1863.86
574.89	1869.59
575.09	1859.56
575.29	1857.71
575.49	1909.73
575.69	2011.92
575.89	1812.45
576.09	1936.97
576.29	1975.06
576.49	1829.86
576.69	1933.90
576.89	1859.15
577.09	1940.66
577.29	1775.38
577.49	2209.14
577.69	1871.64
577.89	2009.88
578.09	1930.01
578.29	1792.18
578.49	1935.54
578.69	1851.16
578.89	2068.24
579.09	1995.34
579.29	1831.91
579.49	2058.62
579.69	1916.90
579.89	2197.27
580.09	1740.16
580.29	1759.00
580.49	1862.83
580.69	1831.91
580.89	1899.70
581.09	1891.09
581.29	1881.67
581.49	1931.64
581.69	1832.52
581.89	1842.76
582.09	1863.24
582.28	1850.95
582.48	2028.10
582.68	2087.08
582.88	2123.13
583.08	1951.71
583.28	1931.64
583.48	1928.98
583.68	1888.23
583.88	1958.06
584.08	1941.27
584.28	1917.10
584.48	2206.48
584.68	2012.54
584.88	1927.55
585.08	2081.35
585.28	2075.00
585.48	2140.13
585.68	1988.37
585.87	2031.79
586.07	2038.75
586.27	1965.03
586.47	2034.86
586.67	1963.80
586.87	1966.87
587.07	1926.32
587.27	1817.16
587.47	1980.59
587.67	2184.36
587.87	2377.08
588.07	2102.44
588.27	2033.43
588.46	2171.05
588.66	2185.18
588.86	2061.28
589.06	2085.24
589.26	2136.03
589.46	2106.75
589.66	1862.22
589.86	1844.40
590.06	1957.24
590.26	2096.92
590.46	1979.77
590.66	2104.08
590.85	2036.70
591.05	2120.26
591.25	1954.38
591.45	1981.20
591.65	2108.59
591.85	2019.50
592.05	1958.06
592.25	2098.14
592.45	2140.33
592.64	1980.80
592.84	1990.63
593.04	1902.56
593.24	2300.07
593.44	1918.13
593.64	2018.68
593.84	2055.14
594.04	1929.80
594.24	2196.65
594.43	1929.39
594.63	1954.38
