SpectraSuite Data File
++++++++++++++++++++++++++++++++++++
Date: Thu Mar 30 14:23:15 PDT 2017
User: UCSD _CER
Dark Spectrum Present: No
Reference Spectrum Present: No
Number of Sampled Component Spectra: 1
Spectrometers: USB4C00073
Integration Time (usec): 380000 (USB4C00073)
Spectra Averaged: 10 (USB4C00073)
Boxcar Smoothing: 0 (USB4C00073)
Correct for Electrical Dark: No (USB4C00073)
Strobe/Lamp Enabled: No (USB4C00073)
Correct for Detector Non-linearity: No (USB4C00073)
Correct for Stray Light: No (USB4C00073)
Number of Pixels in Processed Spectrum: 3648
>>>>>Begin Processed Spectral Data<<<<<
345.37	1219.77
345.58	1219.77
345.80	1219.77
346.01	1243.94
346.22	1219.97
346.43	2055.96
346.65	1885.16
346.86	2412.51
347.07	2361.92
347.28	1802.83
347.50	1809.18
347.71	2126.41
347.92	1860.37
348.13	1796.89
348.35	1793.61
348.56	2128.66
348.77	1933.49
348.98	1840.30
349.20	1693.87
349.41	2139.51
349.62	2276.73
349.83	1919.56
350.05	1788.70
350.26	2180.88
350.47	2354.75
350.68	1851.98
350.90	1721.11
351.11	2367.66
351.32	2316.05
351.53	1846.24
351.75	1756.13
351.96	2165.32
352.17	2096.51
352.38	1873.28
352.60	1903.59
352.81	2130.71
353.02	2418.04
353.23	1774.97
353.44	1823.51
353.66	2023.39
353.87	2073.77
354.08	1908.91
354.29	1847.06
354.51	2063.53
354.72	2104.49
354.93	1875.12
355.14	1910.75
355.35	1961.54
355.57	2359.06
355.78	1926.93
355.99	2011.72
356.20	2195.63
356.42	2173.92
356.63	1986.12
356.84	1906.45
357.05	2282.46
357.26	2504.67
357.48	1958.27
357.69	1860.78
357.90	2218.56
358.11	2020.12
358.32	1788.90
358.54	1883.52
358.75	2038.55
358.96	2230.03
359.17	1827.40
359.38	1878.40
359.60	2249.90
359.81	2131.53
360.02	1878.60
360.23	1817.98
360.44	2050.02
360.66	2303.35
360.87	1824.33
361.08	1814.09
361.29	2181.09
361.50	2139.72
361.72	1826.17
361.93	1919.15
362.14	2111.25
362.35	1879.63
362.56	1993.90
362.77	1768.42
362.99	2260.14
363.20	2155.69
363.41	1954.38
363.62	1742.41
363.83	2282.67
364.05	2303.76
364.26	1794.23
364.47	1827.20
364.68	2317.28
364.89	2020.12
365.10	1776.20
365.32	1877.17
365.53	2016.63
365.74	2010.70
365.95	1838.05
366.16	1702.89
366.37	2113.71
366.59	2084.42
366.80	1868.16
367.01	1738.11
367.22	2498.93
367.43	2614.23
367.64	1888.23
367.86	1861.60
368.07	2213.04
368.28	2331.61
368.49	1725.41
368.70	1887.20
368.91	2075.00
369.12	2112.89
369.34	1745.07
369.55	1730.53
369.76	2113.30
369.97	2005.37
370.18	1742.62
370.39	1801.19
370.60	1908.91
370.82	1933.69
371.03	1854.23
371.24	1807.74
371.45	2253.99
371.66	2196.65
371.87	1798.32
372.08	1796.89
372.30	1907.89
372.51	2240.07
372.72	1910.96
372.93	1794.23
373.14	2362.95
373.35	1992.88
373.56	1745.07
373.78	1862.42
373.99	2249.08
374.20	2627.13
374.41	1819.62
374.62	1822.49
374.83	2385.68
375.04	2056.37
375.25	1849.32
375.47	1867.95
375.68	2044.08
375.89	2197.88
376.10	1877.17
376.31	1938.61
376.52	2216.31
376.73	2180.88
376.94	1911.16
377.15	1809.59
377.37	2123.33
377.58	2062.92
377.79	1741.39
378.00	1792.18
378.21	2156.10
378.42	2210.58
378.63	1897.65
378.84	1912.80
379.05	2283.08
379.27	2136.24
379.48	1913.42
379.69	1791.15
379.90	2327.11
380.11	1786.44
380.32	1815.93
380.53	1978.75
380.74	2353.12
380.95	2121.49
381.16	1881.26
381.37	1864.68
381.59	2347.38
381.80	2274.47
382.01	1808.15
382.22	1756.95
382.43	2212.42
382.64	2166.96
382.85	1824.54
383.06	1970.76
383.27	2296.39
383.48	2134.39
383.69	1915.26
383.91	1796.48
384.12	2205.46
384.33	2174.74
384.54	1834.78
384.75	1709.44
384.96	2642.08
385.17	2271.20
385.38	1834.37
385.59	1800.57
385.80	2243.75
386.01	2373.80
386.22	1941.68
386.43	1845.22
386.64	2480.91
386.86	2110.23
387.07	1918.33
387.28	1766.99
387.49	2044.69
387.70	2311.95
387.91	1930.82
388.12	1814.91
388.33	2177.81
388.54	2039.57
388.75	1820.85
388.96	1927.55
389.17	2056.16
389.38	2104.70
389.59	1959.09
389.80	1932.67
390.01	2114.73
390.22	2022.57
390.43	1942.50
390.64	1716.20
390.86	2169.00
391.07	2271.40
391.28	1835.59
391.49	1904.20
391.70	1890.68
391.91	1987.35
392.12	1810.40
392.33	1888.43
392.54	2123.33
392.75	2053.91
392.96	1916.49
393.17	1810.40
393.38	2521.05
393.59	2341.03
393.80	1866.11
394.01	2088.52
394.22	2394.28
394.43	2790.36
394.64	2128.25
394.85	2248.46
395.06	2342.67
395.27	2320.14
395.48	1931.03
395.69	1752.45
395.90	2083.81
396.11	2130.71
396.32	1839.49
396.53	1939.43
396.74	2072.34
396.95	2284.51
397.16	1802.21
397.37	1756.75
397.58	2286.97
397.79	2128.66
398.00	1901.74
398.21	1858.53
398.42	2142.99
398.63	2497.09
398.84	1818.19
399.05	1823.92
399.26	2331.00
399.47	2190.51
399.68	1706.16
399.89	1777.02
400.10	1906.66
400.31	2050.63
400.52	1896.42
400.73	1810.61
400.94	1863.24
401.15	2155.08
401.36	1813.07
401.57	1892.12
401.78	2304.78
401.99	2269.76
402.20	1786.65
402.41	1992.88
402.62	2363.77
402.83	2081.76
403.04	1818.60
403.25	2071.52
403.46	2323.01
403.67	2675.67
403.88	2314.20
404.09	2294.34
404.30	2537.02
404.51	2387.73
404.72	2098.96
404.93	2202.59
405.14	2105.93
405.35	2135.42
405.56	1881.88
405.77	1786.85
405.98	2173.30
406.19	2077.25
406.40	1774.16
406.61	1821.46
406.82	2009.26
407.03	2516.34
407.24	1779.07
407.45	1877.99
407.66	2194.19
407.87	2246.01
408.08	1905.02
408.29	1911.98
408.49	2210.99
408.70	2105.11
408.91	1820.03
409.12	1989.40
409.33	1939.22
409.54	2318.71
409.75	1808.97
409.96	1857.51
410.17	2293.52
410.38	2077.25
410.59	1807.13
410.80	1965.03
411.01	2087.90
411.22	2096.10
411.43	1941.06
411.64	1823.72
411.85	1974.24
412.06	1955.20
412.27	1665.82
412.47	1803.44
412.68	2136.85
412.89	2168.80
413.10	1855.05
413.31	1767.19
413.52	2476.61
413.73	2475.38
413.94	1856.69
414.15	2007.83
414.36	2069.88
414.57	2022.78
414.78	2132.14
414.99	3245.21
415.19	4441.43
415.40	4875.60
415.61	5218.02
415.82	4938.27
416.03	4464.37
416.24	3789.15
416.45	3020.14
416.66	2358.24
416.87	2160.40
417.08	2392.03
417.29	2049.61
417.50	2272.02
417.70	2707.82
417.91	2759.84
418.12	2737.52
418.33	2990.24
418.54	3417.24
418.75	3728.33
418.96	3938.45
419.17	4958.95
419.38	6372.46
419.59	6523.60
419.79	6242.82
420.00	5806.40
420.21	5224.78
420.42	3840.15
420.63	2960.13
420.84	2494.84
421.05	2279.18
421.26	2185.59
421.47	1789.52
421.67	2212.83
421.88	1984.89
422.09	1879.63
422.30	2040.19
422.51	1827.20
422.72	2398.58
422.93	2236.18
423.14	1896.62
423.35	1741.39
423.55	1862.22
423.76	1992.26
423.97	1872.05
424.18	1810.40
424.39	2213.44
424.60	2455.31
424.81	2092.20
425.02	2559.35
425.22	3025.05
425.43	3136.46
425.64	3376.49
425.85	3574.12
426.06	3995.38
426.27	3885.82
426.48	3910.80
426.68	3895.03
426.89	4012.38
427.10	4001.53
427.31	3052.50
427.52	2464.32
427.73	2667.27
427.94	2488.49
428.14	2121.70
428.35	1946.18
428.56	2361.92
428.77	2273.04
428.98	2034.04
429.19	2531.29
429.40	2961.16
429.60	3127.45
429.81	3106.56
430.02	2967.71
430.23	2731.79
430.44	2648.23
430.65	2146.07
430.85	2029.74
431.06	2279.18
431.27	1902.56
431.48	1882.29
431.69	1925.91
431.90	2149.14
432.10	2160.81
432.31	2019.71
432.52	2494.22
432.73	3632.07
432.94	3778.09
433.15	3441.82
433.35	3299.48
433.56	3462.71
433.77	2990.65
433.98	2748.99
434.19	2507.74
434.40	2637.17
434.60	2419.47
434.81	2110.02
435.02	2038.96
435.23	2182.73
435.44	2101.63
435.64	1809.79
435.85	1813.89
436.06	2099.58
436.27	2053.09
436.48	1788.08
436.68	1837.23
436.89	2395.71
437.10	2227.58
437.31	1895.60
437.52	1978.54
437.73	2159.17
437.93	2153.03
438.14	1920.99
438.35	1751.01
438.56	2064.97
438.77	2088.52
438.97	2027.49
439.18	1846.24
439.39	2326.08
439.60	1896.01
439.80	1828.84
440.01	1853.00
440.22	2026.06
440.43	2220.00
440.64	1808.97
440.84	1913.21
441.05	1942.50
441.26	2615.26
441.47	1961.95
441.68	1865.29
441.88	2078.07
442.09	2070.50
442.30	1994.72
442.51	1992.06
442.71	2088.72
442.92	2181.09
443.13	1877.58
443.34	1818.80
443.55	1952.33
443.75	2229.01
443.96	1848.50
444.17	1812.25
444.38	2317.89
444.58	1983.66
444.79	2000.46
445.00	1946.59
445.21	2091.80
445.41	2084.63
445.62	1719.27
445.83	1995.95
446.04	2140.74
446.24	1905.43
446.45	1717.63
446.66	1882.49
446.87	2213.85
447.07	2025.44
447.28	2123.13
447.49	1890.07
447.70	2268.53
447.90	2289.01
448.11	1944.75
448.32	2015.00
448.53	2398.79
448.73	2325.88
448.94	1863.24
449.15	2041.01
449.36	2134.80
449.56	2191.74
449.77	1905.63
449.98	1819.83
450.19	2298.44
450.39	2486.03
450.60	2482.96
450.81	2511.63
451.02	2638.60
451.22	2765.58
451.43	2161.63
451.64	2206.89
451.84	2365.20
452.05	2648.43
452.26	2168.39
452.47	2040.60
452.67	2116.78
452.88	2397.97
453.09	1862.83
453.30	1841.74
453.50	2276.73
453.71	2415.37
453.92	1875.94
454.12	2027.90
454.33	2048.58
454.54	2128.04
454.75	1858.94
454.95	1891.91
455.16	2196.86
455.37	2272.84
455.57	1995.54
455.78	1912.39
455.99	2136.03
456.19	2155.08
456.40	1832.32
456.61	1929.60
456.82	2145.04
457.02	2230.03
457.23	1948.23
457.44	2072.54
457.64	2074.59
457.85	2294.54
458.06	2042.23
458.26	2151.60
458.47	2211.81
458.68	2419.88
458.89	2061.89
459.09	2263.01
459.30	2717.24
459.51	2368.27
459.71	1944.55
459.92	1947.82
460.13	2304.37
460.33	2565.90
460.54	1964.62
460.75	1961.54
460.95	1934.92
461.16	2225.94
461.37	1932.67
461.57	1916.90
461.78	2178.42
461.99	2024.21
462.19	2302.74
462.40	2017.45
462.61	2904.43
462.81	2474.36
463.02	1958.88
463.23	1941.68
463.43	2340.83
463.64	2137.46
463.85	3271.02
464.05	2054.52
464.26	2854.66
464.47	2499.75
464.67	2183.34
464.88	2119.03
465.09	2055.96
465.29	2204.43
465.50	2022.98
465.71	1955.61
465.91	2091.18
466.12	2145.86
466.33	1990.42
466.53	1867.75
466.74	2367.66
466.94	2088.11
467.15	1968.71
467.36	2128.25
467.56	1975.27
467.77	2184.98
467.98	1998.20
468.18	1922.63
468.39	2047.56
468.60	2451.62
468.80	1928.16
469.01	1864.47
469.21	2250.92
469.42	2508.15
469.63	2208.32
469.83	2179.04
470.04	2610.96
470.25	2724.41
470.45	2234.74
470.66	2055.96
470.86	2325.06
471.07	2202.59
471.28	2115.96
471.48	2125.59
471.69	2237.82
471.90	2795.07
472.10	1979.57
472.31	1898.67
472.51	2045.72
472.72	2024.42
472.93	1900.92
473.13	2052.47
473.34	2190.92
473.54	2148.32
473.75	2005.58
473.96	2152.01
474.16	2173.71
474.37	2352.09
474.57	2253.79
474.78	2102.85
474.99	2423.98
475.19	2350.45
475.40	2087.49
475.60	1920.59
475.81	2452.85
476.02	2249.49
476.22	2213.65
476.43	2321.37
476.63	2378.10
476.84	2636.76
477.05	1984.07
477.25	1952.33
477.46	2736.91
477.66	2201.36
477.87	1900.11
478.08	1963.59
478.28	2346.56
478.49	2161.84
478.69	1920.99
478.90	1956.42
479.10	2278.98
479.31	2503.03
479.52	2082.37
479.72	2117.60
479.93	2336.32
480.13	2094.05
480.34	1959.91
480.54	2013.56
480.75	2009.67
480.96	2335.91
481.16	1910.14
481.37	2005.99
481.57	2294.54
481.78	2275.70
481.98	2147.30
482.19	2080.74
482.40	2512.86
482.60	2312.36
482.81	2220.41
483.01	2039.16
483.22	2516.75
483.42	2503.03
483.63	2204.84
483.83	2055.55
484.04	2130.09
484.24	2308.88
484.45	2097.32
484.66	1893.96
484.86	2255.63
485.07	2050.22
485.27	2049.40
485.48	1974.04
485.68	2422.75
485.89	2115.55
486.09	2126.20
486.30	1993.49
486.50	2234.54
486.71	2325.26
486.91	2371.75
487.12	2474.77
487.33	2934.33
487.53	2951.94
487.74	2519.00
487.94	2518.59
488.15	2782.98
488.35	2919.99
488.56	2707.82
488.76	2595.19
488.97	2660.11
489.17	2631.44
489.38	2312.57
489.58	2150.37
489.79	2359.67
489.99	2318.10
490.20	2058.21
490.40	2160.20
490.61	2327.72
490.81	2146.89
491.02	2061.89
491.22	2121.08
491.43	2402.47
491.63	2235.15
491.84	2208.32
492.04	1984.07
492.25	2330.18
492.45	2165.11
492.66	1966.87
492.86	1918.54
493.07	2165.32
493.27	2570.00
493.48	1884.75
493.68	2001.48
493.89	2186.41
494.09	2339.60
494.30	2012.74
494.50	2251.33
494.71	2377.08
494.91	2184.98
495.12	2308.27
495.32	2379.33
495.53	2477.02
495.73	2119.65
495.94	2114.32
496.14	1900.11
496.35	2525.76
496.55	2178.63
496.76	1987.76
496.96	2093.02
497.17	2224.30
497.37	2334.89
497.58	2031.38
497.78	1983.05
497.98	2216.93
498.19	2261.16
498.39	2126.82
498.60	2173.92
498.80	2022.16
499.01	2390.39
499.21	1935.74
499.42	2060.26
499.62	2176.99
499.83	2580.85
500.03	1926.52
500.24	2101.42
500.44	2436.47
500.64	2358.03
500.85	1986.94
501.05	2081.76
501.26	1935.74
501.46	2381.79
501.67	1931.85
501.87	1902.56
502.08	2064.15
502.28	2126.82
502.48	2134.19
502.69	2217.34
502.89	2084.22
503.10	2217.75
503.30	2216.52
503.51	2146.27
503.71	2029.33
503.92	2400.22
504.12	2253.38
504.32	2239.25
504.53	2632.66
504.73	2680.59
504.94	2547.47
505.14	2794.86
505.35	2959.93
505.55	2957.88
505.75	2759.64
505.96	2909.34
506.16	3000.07
506.37	2479.89
506.57	2301.51
506.78	2393.87
506.98	2634.30
507.18	2259.32
507.39	2124.97
507.59	2190.51
507.80	2315.23
508.00	2430.53
508.20	2413.94
508.41	2206.28
508.61	2596.62
508.82	2470.46
509.02	2227.78
509.22	1960.52
509.43	2038.14
509.63	2127.84
509.84	2067.63
510.04	1906.25
510.24	2468.01
510.45	2342.26
510.65	1940.45
510.86	2122.72
511.06	2116.17
511.26	2500.98
511.47	2378.31
511.67	2142.79
511.88	2419.88
512.08	2432.17
512.28	1959.09
512.49	2133.98
512.69	2267.92
512.90	2249.28
513.10	2051.66
513.30	2096.30
513.51	2297.00
513.71	2504.46
513.91	2109.00
514.12	2158.97
514.32	2548.08
514.53	2476.61
514.73	2575.53
514.93	2587.20
515.14	2779.50
515.34	3231.29
515.54	3033.25
515.75	3321.60
515.95	3631.46
516.15	3675.69
516.36	2848.72
516.56	2621.40
516.77	2255.02
516.97	2636.55
517.17	2367.04
517.38	2448.76
517.58	2805.10
517.78	2800.39
517.99	3129.50
518.19	3340.85
518.39	3895.24
518.60	3692.90
518.80	3230.88
519.00	2924.50
519.21	2733.83
519.41	2867.57
519.61	2228.80
519.82	2351.27
520.02	2412.30
520.22	2458.79
520.43	2296.39
520.63	2343.90
520.83	2368.68
521.04	2282.67
521.24	2925.52
521.44	3103.49
521.65	3437.11
521.85	3724.23
522.05	3308.70
522.26	2847.50
522.46	3113.12
522.66	2745.30
522.87	2383.63
523.07	2460.63
523.27	2379.13
523.48	2729.53
523.68	2357.42
523.88	2425.61
524.09	2672.60
524.29	2621.60
524.49	2484.80
524.70	2855.07
524.90	3224.12
525.10	3131.55
525.31	2615.05
525.51	2360.28
525.71	2590.89
525.91	2463.91
526.12	2116.58
526.32	2012.54
526.52	2162.04
526.73	2121.70
526.93	2118.62
527.13	1955.20
527.34	2256.04
527.54	2283.28
527.74	2221.43
527.94	2115.96
528.15	2203.61
528.35	2355.16
528.55	2240.68
528.76	2127.63
528.96	1983.87
529.16	2377.08
529.36	2161.43
529.57	1929.39
529.77	2398.17
529.97	2003.53
530.18	2125.18
530.38	2017.04
530.58	2315.02
530.78	2250.72
530.99	2071.11
531.19	2189.69
531.39	2150.57
531.60	2267.92
531.80	2124.36
532.00	2242.73
532.20	2280.62
532.41	2114.32
532.61	2037.32
532.81	1993.29
533.01	2130.71
533.22	2259.93
533.42	2140.33
533.62	1881.26
533.82	2438.72
534.03	2172.08
534.23	2186.62
534.43	2016.63
534.63	2168.18
534.84	2235.77
535.04	2101.83
535.24	2064.56
535.44	2606.65
535.65	2073.57
535.85	1963.18
536.05	1948.44
536.25	2196.04
536.46	2155.08
536.66	2329.97
536.86	2293.32
537.06	2512.24
537.27	2611.16
537.47	2179.86
537.67	2101.01
537.87	2467.80
538.08	2228.60
538.28	2037.52
538.48	2084.63
538.68	2333.25
538.88	2477.43
539.09	2029.95
539.29	2145.45
539.49	2415.17
539.69	2288.81
539.90	2154.46
540.10	2052.88
540.30	2586.79
540.50	2313.39
540.70	2138.28
540.91	2253.18
541.11	2669.12
541.31	2948.67
541.51	2696.36
541.72	2814.73
541.92	2968.94
542.12	2680.18
542.32	2497.29
542.52	2315.02
542.73	2285.12
542.93	2419.68
543.13	2222.46
543.33	2473.95
543.53	2737.72
543.74	2828.65
543.94	2596.01
544.14	2898.49
544.34	3287.60
544.54	3181.93
544.75	3303.37
544.95	3530.49
545.15	3459.43
545.35	3369.93
545.55	2965.87
545.75	2650.28
545.96	3011.95
546.16	2427.25
546.36	2383.63
546.56	2406.16
546.76	2661.13
546.97	2745.92
547.17	2285.12
547.37	2276.32
547.57	2168.39
547.77	2393.05
547.97	2195.83
548.18	2237.82
548.38	2440.36
548.58	3611.80
548.78	4065.01
548.98	4805.35
549.18	5631.09
549.39	5946.89
549.59	5075.89
549.79	4392.89
549.99	4380.40
550.19	3981.46
550.39	3588.25
550.60	3094.48
550.80	3020.55
551.00	2933.72
551.20	2500.37
551.40	2367.66
551.60	2548.70
551.80	2512.24
552.01	2439.95
552.21	2363.77
552.41	2524.53
552.61	2752.67
552.81	2326.08
553.01	2154.67
553.21	2447.32
553.42	2165.52
553.62	2117.39
553.82	2033.84
554.02	2540.30
554.22	2360.69
554.42	1984.69
554.62	2264.85
554.83	3111.89
555.03	3870.46
555.23	3958.93
555.43	4687.19
555.63	4924.34
555.83	4476.65
556.03	3761.71
556.23	3427.07
556.44	3633.71
556.64	3700.88
556.84	3151.21
557.04	3356.21
557.24	3298.87
557.44	3041.44
557.64	2719.70
557.84	2448.14
558.04	2480.50
558.25	2594.57
558.45	2246.21
558.65	2358.03
558.85	2565.70
559.05	2318.92
559.25	2535.79
559.45	2686.94
559.65	3658.08
559.85	4574.96
560.05	3937.02
560.26	4300.73
560.46	4337.80
560.66	3854.48
560.86	3337.17
561.06	3042.67
561.26	3256.88
561.46	2994.34
561.66	2603.17
561.86	2672.80
562.06	2509.17
562.26	2495.86
562.47	2324.24
562.67	2138.08
562.87	2490.33
563.07	2179.45
563.27	2313.80
563.47	2334.68
563.67	2335.09
563.87	2605.63
564.07	2568.56
564.27	2793.02
564.47	3121.51
564.67	3301.33
564.87	3128.89
565.08	3025.67
565.28	2831.32
565.48	2925.52
565.68	2664.41
565.88	2581.26
566.08	2806.74
566.28	2407.39
566.48	2075.21
566.68	2199.52
566.88	2174.53
567.08	2398.99
567.28	2244.78
567.48	2267.31
567.68	2542.96
567.88	2353.94
568.08	2554.43
568.28	2635.53
568.48	2630.00
568.68	2841.97
568.89	2450.80
569.09	2188.66
569.29	2548.90
569.49	2486.64
569.69	2100.81
569.89	2040.60
570.09	1947.62
570.29	2101.42
570.49	1967.07
570.69	2038.14
570.89	2381.17
571.09	2560.58
571.29	1939.63
571.49	2197.27
571.69	2233.11
571.89	2243.96
572.09	2030.56
572.29	2063.12
572.49	2267.92
572.69	2262.39
572.89	2243.55
573.09	2131.53
573.29	2642.29
573.49	2811.25
573.69	2696.15
573.89	2615.87
574.09	2473.74
574.29	2680.18
574.49	2268.94
574.69	2092.00
574.89	2109.20
575.09	2060.26
575.29	1966.66
575.49	2063.33
575.69	2244.57
575.89	1958.88
576.09	2073.16
576.29	2167.57
576.49	2144.22
576.69	2371.96
576.89	2279.18
577.09	2318.10
577.29	2140.54
577.49	2649.66
577.69	2141.77
577.89	2316.46
578.09	2291.68
578.29	2017.45
578.49	2132.55
578.69	2016.43
578.89	2363.15
579.09	2249.90
579.29	2052.68
579.49	2321.37
579.69	2259.93
579.89	2662.56
580.09	2010.08
580.29	1982.02
580.49	2175.56
580.69	2089.75
580.89	2001.28
581.09	2025.24
581.29	2082.37
581.49	2119.65
581.69	1904.82
581.89	1966.25
582.09	2002.71
582.28	2045.31
582.48	2315.64
582.68	2438.52
582.88	2739.57
583.08	2511.83
583.28	2452.03
583.48	2331.00
583.68	2273.65
583.88	2348.41
584.08	2183.75
584.28	2175.76
584.48	2561.19
584.68	2293.72
584.88	2084.42
585.08	2339.60
585.28	2453.88
585.48	2567.13
585.68	2324.24
585.87	2365.61
586.07	2407.39
586.27	2305.40
586.47	2213.04
586.67	2107.56
586.87	2225.94
587.07	2180.68
587.27	2133.16
587.47	2381.17
587.67	3029.56
587.87	3808.20
588.07	3669.55
588.27	3743.07
588.46	4278.62
588.66	4339.85
588.86	3501.00
589.06	3230.88
589.26	3233.95
589.46	3003.55
589.66	2497.91
589.86	2316.25
590.06	2589.66
590.26	2992.29
590.46	2895.83
590.66	3128.48
590.85	3217.36
591.05	3341.47
591.25	2803.46
591.45	2725.23
591.65	2911.19
591.85	2960.95
592.05	2896.65
592.25	3108.00
592.45	3425.23
592.64	3198.72
592.84	2877.40
593.04	2630.62
593.24	3237.43
593.44	2677.51
593.64	2630.82
593.84	2723.80
594.04	2667.68
594.24	2907.50
594.43	2364.99
594.63	2333.66
