SpectraSuite Data File
++++++++++++++++++++++++++++++++++++
Date: Thu Mar 30 16:28:38 PDT 2017
User: UCSD _CER
Dark Spectrum Present: No
Reference Spectrum Present: No
Number of Sampled Component Spectra: 1
Spectrometers: USB4C00073
Integration Time (usec): 250000 (USB4C00073)
Spectra Averaged: 10 (USB4C00073)
Boxcar Smoothing: 0 (USB4C00073)
Correct for Electrical Dark: No (USB4C00073)
Strobe/Lamp Enabled: No (USB4C00073)
Correct for Detector Non-linearity: No (USB4C00073)
Correct for Stray Light: No (USB4C00073)
Number of Pixels in Processed Spectrum: 3648
>>>>>Begin Processed Spectral Data<<<<<
345.37	1291.24
345.58	1291.24
345.80	1291.24
346.01	1281.62
346.22	1261.55
346.43	1976.09
346.65	1770.06
346.86	2117.80
347.07	2076.64
347.28	1784.19
347.50	1803.44
347.71	1932.46
347.92	1722.34
348.13	1812.45
348.35	1721.11
348.56	1918.33
348.77	1766.58
348.98	1821.46
349.20	1680.15
349.41	1931.03
349.62	1981.41
349.83	1869.18
350.05	1746.30
350.26	1974.04
350.47	2093.64
350.68	1785.21
350.90	1730.53
351.11	2130.91
351.32	2039.98
351.53	1846.24
351.75	1749.17
351.96	1951.51
352.17	1934.72
352.38	1885.97
352.60	1891.91
352.81	1933.69
353.02	2153.03
353.23	1799.75
353.44	1840.51
353.66	1857.51
353.87	1911.37
354.08	1919.77
354.29	1819.01
354.51	1837.23
354.72	1903.59
354.93	1790.13
355.14	1752.86
355.35	1751.01
355.57	2068.24
355.78	1816.75
355.99	1919.15
356.20	1929.39
356.42	1906.25
356.63	1897.85
356.84	1843.38
357.05	2038.75
357.26	2215.70
357.48	1927.96
357.69	1871.23
357.90	1999.02
358.11	1895.60
358.32	1833.34
358.54	1893.35
358.75	1866.31
358.96	2019.09
359.17	1811.02
359.38	1832.11
359.60	2027.69
359.81	1921.20
360.02	1822.90
360.23	1789.52
360.44	1842.56
360.66	2056.16
360.87	1784.80
361.08	1765.76
361.29	1981.82
361.50	1939.84
361.72	1781.32
361.93	1853.62
362.14	1930.62
362.35	1752.45
362.56	1917.51
362.77	1738.32
362.99	2021.14
363.20	1929.60
363.41	1846.65
363.62	1698.38
363.83	2011.11
364.05	2030.77
364.26	1696.13
364.47	1761.05
364.68	2062.10
364.89	1819.21
365.10	1746.51
365.32	1830.88
365.53	1837.85
365.74	1842.97
365.95	1839.08
366.16	1711.28
366.37	1896.42
366.59	1865.49
366.80	1834.98
367.01	1675.85
367.22	2178.01
367.43	2286.97
367.64	1826.99
367.86	1787.26
368.07	1964.82
368.28	2097.94
368.49	1763.10
368.70	1854.64
368.91	1879.42
369.12	1923.66
369.34	1729.30
369.55	1743.03
369.76	1911.78
369.97	1829.45
370.18	1740.77
370.39	1734.02
370.60	1768.63
370.82	1763.92
371.03	1824.13
371.24	1755.72
371.45	2008.24
371.66	2008.24
371.87	1837.85
372.08	1791.56
372.30	1834.98
372.51	2073.98
372.72	1924.89
372.93	1787.67
373.14	2137.87
373.35	1887.41
373.56	1766.99
373.78	1807.74
373.99	2051.04
374.20	2294.13
374.41	1826.58
374.62	1828.84
374.83	2119.85
375.04	1891.30
375.25	1798.32
375.47	1776.00
375.68	1882.49
375.89	1998.20
376.10	1821.46
376.31	1919.56
376.52	1998.82
376.73	1973.01
376.94	1823.72
377.15	1798.32
377.37	1913.83
377.58	1897.44
377.79	1708.62
378.00	1774.97
378.21	1951.10
378.42	2017.66
378.63	1867.54
378.84	1903.18
379.05	2069.27
379.27	1960.32
379.48	1956.63
379.69	1787.88
379.90	2104.90
380.11	1712.92
380.32	1844.40
380.53	1919.77
380.74	2100.81
380.95	1942.29
381.16	1850.54
381.37	1805.49
381.59	2139.31
381.80	2048.38
382.01	1787.67
382.22	1710.67
382.43	1988.99
382.64	1959.70
382.85	1766.17
383.06	1894.99
383.27	2029.74
383.48	1918.33
383.69	1891.71
383.91	1797.50
384.12	2045.72
384.33	2044.08
384.54	1916.28
384.75	1805.90
384.96	2417.42
385.17	2109.82
385.38	1891.50
385.59	1852.80
385.80	2068.45
386.01	2148.11
386.22	1960.32
386.43	1890.89
386.64	2238.02
386.86	1953.76
387.07	1967.28
387.28	1791.77
387.49	1930.42
387.70	2133.37
387.91	1925.71
388.12	1818.39
388.33	2027.90
388.54	1907.48
388.75	1832.73
388.96	1880.04
389.17	1848.09
389.38	1896.42
389.59	1899.49
389.80	1863.86
390.01	1950.69
390.22	1888.02
390.43	1936.35
390.64	1736.27
390.86	1998.61
391.07	2086.68
391.28	1862.83
391.49	1869.18
391.70	1771.70
391.91	1856.07
392.12	1851.98
392.33	1826.38
392.54	1975.27
392.75	1929.39
392.96	1927.14
393.17	1782.55
393.38	2233.72
393.59	2078.69
393.80	1759.61
394.01	1856.07
394.22	1956.42
394.43	2212.01
394.64	1794.64
394.85	1961.75
395.06	1927.14
395.27	1946.59
395.48	1836.62
395.69	1762.07
395.90	1900.72
396.11	1918.13
396.32	1800.37
396.53	1926.73
396.74	1898.67
396.95	2044.49
397.16	1792.38
397.37	1723.57
397.58	2043.05
397.79	1940.66
398.00	1865.29
398.21	1823.51
398.42	1961.34
398.63	2170.44
398.84	1834.16
399.05	1768.63
399.26	2085.45
399.47	1993.70
399.68	1658.65
399.89	1769.85
400.10	1783.99
400.31	1862.83
400.52	1882.90
400.73	1836.62
400.94	1759.21
401.15	2000.66
401.36	1845.63
401.57	1881.06
401.78	2095.69
401.99	2044.69
402.20	1761.46
402.41	1922.22
402.62	2127.43
402.83	1900.72
403.04	1806.92
403.25	1998.82
403.46	2008.44
403.67	2154.46
403.88	1901.13
404.09	1876.55
404.30	1928.78
404.51	1909.94
404.72	1815.52
404.93	1945.37
405.14	1860.37
405.35	1929.60
405.56	1843.99
405.77	1839.69
405.98	1950.69
406.19	1925.91
406.40	1802.01
406.61	1851.98
406.82	1940.66
407.03	2292.70
407.24	1812.45
407.45	1901.74
407.66	2035.27
407.87	2084.22
408.08	1889.25
408.29	1896.21
408.49	2022.78
408.70	1908.71
408.91	1824.74
409.12	1921.40
409.33	1802.21
409.54	2089.75
409.75	1814.09
409.96	1849.52
410.17	2035.48
410.38	1909.12
410.59	1838.05
410.80	1948.23
411.01	1921.81
411.22	1927.14
411.43	1876.55
411.64	1759.00
411.85	1823.92
412.06	1813.68
412.27	1654.55
412.47	1823.72
412.68	1925.30
412.89	2015.61
413.10	1824.54
413.31	1747.53
413.52	2184.98
413.73	2184.77
413.94	1807.74
414.15	1925.91
414.36	1857.10
414.57	1844.81
414.78	1747.33
414.99	1900.31
415.19	2233.31
415.40	2239.45
415.61	2290.86
415.82	2141.97
416.03	2251.74
416.24	2141.77
416.45	1946.39
416.66	1842.35
416.87	1811.02
417.08	2034.66
417.29	1806.31
417.50	1911.16
417.70	2070.29
417.91	2030.77
418.12	1944.75
418.33	1936.97
418.54	2127.43
418.75	2256.25
418.96	2207.92
419.17	2272.43
419.38	2657.44
419.59	2554.64
419.79	2444.66
420.00	2318.92
420.21	2657.44
420.42	2180.06
420.63	1956.83
420.84	1963.39
421.05	1976.29
421.26	1950.49
421.47	1776.20
421.67	2041.82
421.88	1871.23
422.09	1855.87
422.30	2042.03
422.51	1913.83
422.72	2214.26
422.93	2070.09
423.14	1870.82
423.35	1756.13
423.55	1754.49
423.76	1834.78
423.97	1858.12
424.18	1754.49
424.39	1892.32
424.60	2060.67
424.81	1855.87
425.02	2009.67
425.22	2079.51
425.43	2100.40
425.64	2230.44
425.85	2184.77
426.06	2476.20
426.27	2312.77
426.48	2228.60
426.68	2190.92
426.89	2295.16
427.10	2426.64
427.31	2056.78
427.52	1915.47
427.73	2088.31
427.94	2053.50
428.14	1961.75
428.35	1861.40
428.56	2158.35
428.77	2090.98
428.98	1898.06
429.19	1936.56
429.40	1993.90
429.60	2036.30
429.81	2068.04
430.02	2034.25
430.23	1993.29
430.44	2087.90
430.65	1847.06
430.85	1878.40
431.06	2014.79
431.27	1735.45
431.48	1849.73
431.69	1874.92
431.90	1916.69
432.10	1975.88
432.31	1959.91
432.52	1967.07
432.73	2469.85
432.94	2384.45
433.15	2217.54
433.35	2056.16
433.56	2269.97
433.77	2114.32
433.98	2438.93
434.19	2498.32
434.40	2676.49
434.60	2670.96
434.81	2554.43
435.02	2371.75
435.23	2252.36
435.44	2138.69
435.64	1885.16
435.85	1871.02
436.06	1917.31
436.27	1936.35
436.48	1835.18
436.68	1895.80
436.89	2295.77
437.10	2209.35
437.31	2007.83
437.52	2113.09
437.73	2099.99
437.93	2092.82
438.14	1987.35
438.35	1765.55
438.56	1910.55
438.77	1932.87
438.97	1970.15
439.18	1866.11
439.39	2197.06
439.60	1968.92
439.80	1940.66
440.01	2053.09
440.22	2036.30
440.43	2093.02
440.64	1795.86
440.84	1946.18
441.05	1815.93
441.26	2315.23
441.47	1909.12
441.68	1914.85
441.88	2183.13
442.09	2258.30
442.30	2464.12
442.51	2424.80
442.71	2329.56
442.92	2291.88
443.13	2056.98
443.34	1953.97
443.55	1964.62
443.75	2072.95
443.96	1807.13
444.17	1776.82
444.38	2061.49
444.58	1839.90
444.79	1918.13
445.00	1877.58
445.21	1933.90
445.41	1926.73
445.62	1633.26
445.83	1928.78
446.04	1971.17
446.24	1776.82
446.45	1660.70
446.66	1812.86
446.87	1966.46
447.07	1870.61
447.28	2068.24
447.49	1914.85
447.70	2109.41
447.90	2105.11
448.11	1876.14
448.32	1976.29
448.53	2105.72
448.73	2124.56
448.94	1848.50
449.15	1962.77
449.36	1952.94
449.56	1974.45
449.77	1806.72
449.98	1770.47
450.19	1884.54
450.39	1988.78
450.60	1982.23
450.81	1951.71
451.02	2027.69
451.22	2180.88
451.43	1847.47
451.64	1866.72
451.84	1939.02
452.05	2114.73
452.26	1918.13
452.47	1863.04
452.67	1879.83
452.88	2099.17
453.09	1795.66
453.30	1786.65
453.50	2063.94
453.71	2256.66
453.92	1993.70
454.12	2124.56
454.33	2041.62
454.54	2058.62
454.75	1876.96
454.95	1858.33
455.16	2003.94
455.37	2038.75
455.57	1901.13
455.78	1866.31
455.99	1928.37
456.19	1962.98
456.40	1793.00
456.61	1864.06
456.82	1918.33
457.02	2123.95
457.23	2028.72
457.44	2208.94
457.64	2041.82
457.85	2158.56
458.06	2002.91
458.26	2110.64
458.47	2040.19
458.68	2150.98
458.89	1899.08
459.09	2068.24
459.30	2276.11
459.51	1989.19
459.71	1779.28
459.92	1859.76
460.13	2126.61
460.33	2354.14
460.54	1988.17
460.75	2005.78
460.95	1983.46
461.16	2078.89
461.37	1886.79
461.57	1909.73
461.78	1989.81
461.99	1862.01
462.19	2078.07
462.40	1844.81
462.61	2206.28
462.81	2098.76
463.02	1784.80
463.23	1819.83
463.43	2012.54
463.64	1875.32
463.85	2763.73
464.05	1813.48
464.26	2325.88
464.47	2096.92
464.67	1993.29
464.88	1947.41
465.09	1957.65
465.29	2107.97
465.50	2161.43
465.71	2051.45
465.91	2024.01
466.12	1979.16
466.33	1957.45
466.53	1901.13
466.74	2148.32
466.94	1942.29
467.15	1877.78
467.36	2045.92
467.56	1838.26
467.77	1970.56
467.98	1883.93
468.18	1802.01
468.39	1870.82
468.60	2188.25
468.80	1873.07
469.01	1788.08
469.21	2009.47
469.42	2092.41
469.63	1880.65
469.83	1807.74
470.04	2044.90
470.25	2118.62
470.45	1918.33
470.66	1827.61
470.86	1990.01
471.07	1914.44
471.28	1953.76
471.48	1970.35
471.69	1978.34
471.90	2557.30
472.10	2047.35
472.31	2141.97
472.51	2119.65
472.72	2160.81
472.93	2044.08
473.13	2235.56
473.34	2273.86
473.54	2199.72
473.75	2072.95
473.96	2135.42
474.16	1999.43
474.37	2046.13
474.57	1894.37
474.78	1830.88
474.99	1991.44
475.19	1971.17
475.40	1831.29
475.60	1875.53
475.81	2354.34
476.02	2177.81
476.22	2159.38
476.43	2255.02
476.63	2055.34
476.84	2211.60
477.05	1765.14
477.25	1869.80
477.46	2354.14
477.66	1998.00
477.87	1803.24
478.08	1883.11
478.28	2091.59
478.49	1925.50
478.69	1824.74
478.90	1819.01
479.10	2011.11
479.31	2105.72
479.52	1885.16
479.72	2143.20
479.93	2382.40
480.13	2364.58
480.34	2359.06
480.54	2459.00
480.75	2180.68
480.96	2268.74
481.16	1950.49
481.37	2030.15
481.57	2120.26
481.78	2092.82
481.98	2130.30
482.19	1962.77
482.40	2217.95
482.60	2034.45
482.81	1907.27
483.01	1805.49
483.22	2036.70
483.42	2038.34
483.63	1921.61
483.83	1941.88
484.04	1976.09
484.24	2171.46
484.45	2059.85
484.66	1904.00
484.86	2116.78
485.07	1896.01
485.27	1928.78
485.48	1867.54
485.68	2130.91
485.89	1881.67
486.09	1947.82
486.30	1861.40
486.50	1981.82
486.71	1957.86
486.91	1917.31
487.12	2269.76
487.33	2772.54
487.53	2917.74
487.74	2835.00
487.94	2689.19
488.15	2474.36
488.35	2309.29
488.56	2114.53
488.76	2030.77
488.97	2081.15
489.17	2135.42
489.38	2002.91
489.58	1993.29
489.79	2079.71
489.99	2030.15
490.20	1930.21
490.40	1982.64
490.61	2006.19
490.81	1895.19
491.02	1890.48
491.22	1960.52
491.43	2036.30
491.63	1928.98
491.84	1990.22
492.04	1769.04
492.25	2018.89
492.45	1937.58
492.66	1914.24
492.86	1809.18
493.07	2012.13
493.27	2290.86
493.48	1774.77
493.68	1887.41
493.89	1924.27
494.09	2062.10
494.30	1849.73
494.50	2117.60
494.71	2015.61
494.91	1793.20
495.12	1851.98
495.32	1937.99
495.53	1949.87
495.73	1876.14
495.94	2064.76
496.14	1921.40
496.35	2398.79
496.55	2075.00
496.76	1958.47
496.96	2001.48
497.17	1967.69
497.37	2029.54
497.58	1867.95
497.78	1803.65
497.98	1941.47
498.19	1925.91
498.39	1896.62
498.60	1909.12
498.80	1754.70
499.01	2016.84
499.21	1812.04
499.42	1880.04
499.62	1905.43
499.83	2213.04
500.03	1793.20
500.24	2021.55
500.44	2213.65
500.64	2173.71
500.85	2004.14
501.05	2077.05
501.26	1844.40
501.46	2173.92
501.67	1888.02
501.87	1802.42
502.08	1849.32
502.28	1924.68
502.48	1957.04
502.69	1989.60
502.89	1771.90
503.10	1864.68
503.30	1904.41
503.51	1892.12
503.71	1812.45
503.92	2004.76
504.12	1937.99
504.32	1879.42
504.53	2028.92
504.73	2087.70
504.94	2005.37
505.14	2097.94
505.35	2080.74
505.55	2068.24
505.75	2004.55
505.96	2117.60
506.16	2321.17
506.37	1942.29
506.57	1878.81
506.78	1977.31
506.98	2109.82
507.18	1798.53
507.39	1830.27
507.59	1923.04
507.80	1868.36
508.00	1983.25
508.20	2053.50
508.41	1930.82
508.61	2116.17
508.82	2068.04
509.02	2020.53
509.22	1828.84
509.43	1848.09
509.63	1895.80
509.84	1902.56
510.04	1788.49
510.24	2148.32
510.45	2053.70
510.65	1815.52
510.86	1909.32
511.06	1844.61
511.26	2017.66
511.47	1965.44
511.67	1828.84
511.88	2013.15
512.08	2081.15
512.28	1791.15
512.49	1965.85
512.69	1955.40
512.90	1966.66
513.10	1847.06
513.30	1938.20
513.51	2023.60
513.71	2196.45
513.91	2022.57
514.12	2027.49
514.32	2121.08
514.53	1951.71
514.73	1975.06
514.93	1899.29
515.14	1968.30
515.34	2112.68
515.54	1898.88
515.75	1956.63
515.95	2044.69
516.15	2105.93
516.36	1978.54
516.56	1966.25
516.77	1696.33
516.97	1988.99
517.17	1884.13
517.38	1978.95
517.58	2135.62
517.78	1891.91
517.99	1933.49
518.19	1915.47
518.39	2129.68
518.60	1921.40
518.80	1837.23
519.00	1976.09
519.21	1930.82
519.41	2168.18
519.61	1830.27
519.82	1945.37
520.02	1952.33
520.22	1932.87
520.43	1875.73
520.63	1862.22
520.83	1853.62
521.04	1772.31
521.24	1933.69
521.44	1837.64
521.65	1839.49
521.85	2017.25
522.05	1792.18
522.26	1868.98
522.46	2180.88
522.66	2041.82
522.87	1857.51
523.07	2003.94
523.27	1901.33
523.48	2131.12
523.68	1926.93
523.88	1918.33
524.09	2083.40
524.29	1980.39
524.49	1746.71
524.70	2007.83
524.90	2082.37
525.10	2022.37
525.31	1744.66
525.51	1784.19
525.71	2055.55
525.91	1982.23
526.12	1849.73
526.32	1776.41
526.52	1867.34
526.73	1857.30
526.93	1918.54
527.13	1758.80
527.34	1911.78
527.54	1904.00
527.74	1854.85
527.94	1778.46
528.15	1823.31
528.35	1968.51
528.55	1950.90
528.76	1957.04
528.96	1767.81
529.16	2037.32
529.36	2010.08
529.57	1796.68
529.77	2055.75
529.97	1826.58
530.18	1986.94
530.38	1866.72
530.58	2009.47
530.78	1955.40
530.99	1866.93
531.19	1964.41
531.39	1829.86
531.60	1937.17
531.80	1867.95
532.00	2008.44
532.20	1965.64
532.41	1863.04
532.61	1867.95
532.81	1868.57
533.01	1877.78
533.22	2012.74
533.42	2031.59
533.62	1725.41
533.82	2138.49
534.03	1910.96
534.23	1956.63
534.43	1825.15
534.63	1878.40
534.84	1970.15
535.04	1944.96
535.24	1937.58
535.44	2294.13
535.65	1896.42
535.85	1854.03
536.05	1865.49
536.25	1960.73
536.46	1812.25
536.66	2067.83
536.86	1920.79
537.06	2020.32
537.27	2105.93
537.47	1977.93
537.67	1865.09
537.87	2149.96
538.08	1912.19
538.28	1823.51
538.48	1805.08
538.68	1928.37
538.88	2008.44
539.09	1794.43
539.29	1883.93
539.49	2051.86
539.69	2001.28
539.90	1967.89
540.10	1823.10
540.30	2127.23
540.50	1897.65
540.70	1773.54
540.91	1902.77
541.11	2019.91
541.31	2149.96
541.51	1982.43
541.72	1958.88
541.92	1992.67
542.12	1864.27
542.32	1867.13
542.52	1869.59
542.73	1882.90
542.93	2031.58
543.13	1884.34
543.33	1969.33
543.53	2058.62
543.74	2033.63
543.94	1892.32
544.14	2011.72
544.34	2107.36
544.54	1976.70
544.75	1998.82
544.95	2142.99
545.15	2061.89
545.35	2188.05
545.55	2016.23
545.75	1886.18
545.96	2250.92
546.16	1796.07
546.36	1868.77
546.56	1939.43
546.76	2102.04
546.97	2169.62
547.17	1935.54
547.37	2000.05
547.57	1918.74
547.77	2052.68
547.97	1960.52
548.18	1946.18
548.38	1955.40
548.58	2122.92
548.78	1861.19
548.98	1935.13
549.18	2058.82
549.39	2194.60
549.59	2010.08
549.79	1951.51
549.99	2151.80
550.19	2094.66
550.39	2034.45
550.60	1919.56
550.80	1988.78
551.00	2022.37
551.20	1857.71
551.40	1888.43
551.60	2023.39
551.80	2022.16
552.01	2003.53
552.21	1939.22
552.41	1991.44
552.61	2204.84
552.81	1974.04
553.01	1864.47
553.21	2012.33
553.42	1848.50
553.62	1844.40
553.82	1851.77
554.02	2138.49
554.22	2068.86
554.42	1836.21
554.62	1999.84
554.83	2189.07
555.03	2154.26
555.23	1971.37
555.43	2185.80
555.63	2045.72
555.83	2007.83
556.03	1965.44
556.23	1817.78
556.44	1990.01
556.64	2110.23
556.84	1706.37
557.04	1904.61
557.24	1971.99
557.44	1977.52
557.64	1935.54
557.84	1842.35
558.04	1884.13
558.25	2039.16
558.45	1872.46
558.65	1930.82
558.85	1961.54
559.05	1745.69
559.25	1881.26
559.45	1991.44
559.65	2214.67
559.85	2588.43
560.05	1983.46
560.26	2020.94
560.46	2026.26
560.66	1962.57
560.86	1944.14
561.06	1856.28
561.26	2148.93
561.46	2040.19
561.66	1882.49
561.86	2003.73
562.06	1865.70
562.26	1917.51
562.47	1941.27
562.67	1819.62
562.87	2033.63
563.07	1745.69
563.27	1954.58
563.47	1938.40
563.67	1887.82
563.87	2009.47
564.07	1859.56
564.27	1924.48
564.47	1974.04
564.67	2017.45
564.87	1888.23
565.08	1979.77
565.28	1891.71
565.48	2021.14
565.68	1981.20
565.88	1996.97
566.08	2178.01
566.28	1959.70
566.48	1783.37
566.68	1894.37
566.88	1920.59
567.08	2092.41
567.28	1902.77
567.48	1915.87
567.68	1996.36
567.88	1774.36
568.08	1976.70
568.28	2064.35
568.48	1926.11
568.68	2088.93
568.89	1932.46
569.09	1759.61
569.29	2047.56
569.49	2033.84
569.69	1826.38
569.89	1819.83
570.09	1735.04
570.29	1873.07
570.49	1770.47
570.69	1840.71
570.89	2042.85
571.09	2207.30
571.29	1807.33
571.49	2053.29
571.69	1996.16
571.89	2018.89
572.09	1859.56
572.29	1889.05
572.49	2043.05
572.69	2036.70
572.89	1920.99
573.09	1689.98
573.29	1941.27
573.49	1971.17
573.69	1920.79
573.89	2038.96
574.09	1914.44
574.29	2114.73
574.49	1870.41
574.69	1850.13
574.89	1811.84
575.09	1843.17
575.29	1838.67
575.49	1921.20
575.69	1982.43
575.89	1807.74
576.09	1951.10
576.29	1951.92
576.49	1821.26
576.69	1932.46
576.89	1863.04
577.09	1913.42
577.29	1762.07
577.49	2162.45
577.69	1873.28
577.89	2012.95
578.09	1974.65
578.29	1762.48
578.49	1919.56
578.69	1851.57
578.89	2071.93
579.09	1960.52
579.29	1837.44
579.49	2026.87
579.69	1905.02
579.89	2171.26
580.09	1737.09
580.29	1782.96
580.49	1860.58
580.69	1823.10
580.89	1902.15
581.09	1906.66
581.29	1908.30
581.49	1908.50
581.69	1835.18
581.89	1847.06
582.09	1812.45
582.28	1840.92
582.48	2011.51
582.68	2095.48
582.88	2087.49
583.08	1920.59
583.28	1894.78
583.48	1909.53
583.68	1857.92
583.88	1949.87
584.08	1938.20
584.28	1921.81
584.48	2179.65
584.68	2021.55
584.88	1900.11
585.08	2076.44
585.28	2066.40
585.48	2109.61
585.68	2007.42
585.87	2012.13
586.07	2028.92
586.27	1954.79
586.47	2028.10
586.67	1949.46
586.87	1957.24
587.07	1890.89
587.27	1826.79
587.47	1986.12
587.67	2194.81
587.87	2335.09
588.07	2046.13
588.27	1960.11
588.46	2125.18
588.66	2134.80
588.86	1962.16
589.06	2023.39
589.26	2104.08
589.46	2076.03
589.66	1869.39
589.86	1866.31
590.06	1949.26
590.26	2044.69
590.46	1944.96
590.66	2052.47
590.85	1944.55
591.05	2058.00
591.25	1848.91
591.45	1943.52
591.65	2053.50
591.85	1989.19
592.05	1922.84
592.25	2034.86
592.45	2103.88
592.64	1950.90
592.84	1943.93
593.04	1856.69
593.24	2286.97
593.44	1897.24
593.64	1984.07
593.84	2031.18
594.04	1899.70
594.24	2158.35
594.43	1882.08
594.63	1943.11
