SpectraSuite Data File
++++++++++++++++++++++++++++++++++++
Date: Thu Mar 30 16:27:33 PDT 2017
User: UCSD _CER
Dark Spectrum Present: No
Reference Spectrum Present: No
Number of Sampled Component Spectra: 1
Spectrometers: USB4C00073
Integration Time (usec): 250000 (USB4C00073)
Spectra Averaged: 10 (USB4C00073)
Boxcar Smoothing: 0 (USB4C00073)
Correct for Electrical Dark: No (USB4C00073)
Strobe/Lamp Enabled: No (USB4C00073)
Correct for Detector Non-linearity: No (USB4C00073)
Correct for Stray Light: No (USB4C00073)
Number of Pixels in Processed Spectrum: 3648
>>>>>Begin Processed Spectral Data<<<<<
345.37	1284.90
345.58	1284.90
345.80	1284.90
346.01	1259.71
346.22	1279.16
346.43	1975.06
346.65	1767.60
346.86	2146.68
347.07	2095.69
347.28	1798.53
347.50	1783.99
347.71	1936.76
347.92	1733.81
348.13	1811.84
348.35	1721.32
348.56	1936.35
348.77	1765.35
348.98	1815.52
349.20	1669.91
349.41	1925.71
349.62	1985.92
349.83	1871.64
350.05	1726.23
350.26	1960.73
350.47	2112.27
350.68	1775.79
350.90	1706.16
351.11	2110.02
351.32	2073.57
351.53	1795.04
351.75	1731.35
351.96	1945.16
352.17	1881.47
352.38	1853.21
352.60	1874.92
352.81	1921.81
353.02	2130.91
353.23	1759.21
353.44	1791.77
353.66	1877.37
353.87	1871.84
354.08	1899.49
354.29	1834.78
354.51	1840.92
354.72	1891.71
354.93	1798.94
355.14	1747.53
355.35	1769.04
355.57	2084.22
355.78	1852.59
355.99	1890.48
356.20	1927.14
356.42	1913.83
356.63	1901.54
356.84	1844.81
357.05	2020.32
357.26	2175.76
357.48	1894.37
357.69	1824.33
357.90	1960.52
358.11	1845.42
358.32	1808.36
358.54	1841.94
358.75	1887.00
358.96	1976.49
359.17	1814.30
359.38	1820.03
359.60	1974.45
359.81	1909.73
360.02	1816.75
360.23	1766.99
360.44	1837.23
360.66	2056.78
360.87	1736.68
361.08	1737.50
361.29	1963.39
361.50	1941.68
361.72	1784.80
361.93	1859.15
362.14	1927.75
362.35	1739.95
362.56	1901.54
362.77	1746.71
362.99	1968.10
363.20	1931.64
363.41	1899.90
363.62	1722.34
363.83	1990.83
364.05	2043.67
364.26	1711.69
364.47	1766.78
364.68	2070.29
364.89	1849.52
365.10	1727.67
365.32	1838.26
365.53	1815.73
365.74	1864.27
365.95	1836.21
366.16	1704.32
366.37	1908.30
366.59	1875.12
366.80	1819.21
367.01	1685.68
367.22	2159.99
367.43	2285.53
367.64	1812.86
367.86	1817.78
368.07	1981.00
368.28	2051.66
368.49	1725.00
368.70	1820.64
368.91	1871.43
369.12	1905.84
369.34	1713.54
369.55	1748.76
369.76	1891.71
369.97	1854.85
370.18	1739.54
370.39	1742.21
370.60	1769.45
370.82	1751.83
371.03	1826.79
371.24	1763.51
371.45	1984.07
371.66	2000.87
371.87	1804.06
372.08	1773.75
372.30	1768.83
372.51	2025.65
372.72	1877.58
372.93	1774.97
373.14	2077.46
373.35	1812.45
373.56	1771.49
373.78	1810.81
373.99	2024.42
374.20	2258.30
374.41	1812.25
374.62	1816.34
374.83	2086.27
375.04	1891.30
375.25	1841.74
375.47	1779.48
375.68	1850.54
375.89	1970.97
376.10	1814.50
376.31	1901.33
376.52	1977.72
376.73	1946.59
376.94	1809.18
377.15	1770.67
377.37	1908.71
377.58	1866.72
377.79	1685.48
378.00	1728.90
378.21	1913.01
378.42	1988.37
378.63	1826.38
378.84	1878.19
379.05	2006.39
379.27	1936.76
379.48	1926.73
379.69	1764.12
379.90	2046.74
380.11	1665.82
380.32	1786.44
380.53	1900.92
380.74	2088.93
380.95	1913.62
381.16	1803.44
381.37	1774.36
381.59	2065.79
381.80	2042.85
382.01	1759.00
382.22	1707.80
382.43	1979.77
382.64	1898.06
382.85	1733.81
383.06	1873.89
383.27	2022.78
383.48	1914.24
383.69	1846.24
383.91	1731.56
384.12	1991.65
384.33	1967.07
384.54	1816.55
384.75	1681.18
384.96	2277.14
385.17	1997.59
385.38	1754.09
385.59	1768.63
385.80	1993.90
386.01	2108.18
386.22	1882.08
386.43	1831.50
386.64	2203.00
386.86	1878.60
387.07	1907.48
387.28	1712.72
387.49	1850.95
387.70	2071.11
387.91	1864.06
388.12	1745.69
388.33	1966.05
388.54	1868.16
388.75	1764.94
388.96	1850.75
389.17	1856.69
389.38	1895.40
389.59	1870.00
389.80	1828.84
390.01	1921.81
390.22	1857.51
390.43	1894.99
390.64	1675.03
390.86	1974.86
391.07	2029.95
391.28	1823.92
391.49	1829.45
391.70	1753.88
391.91	1827.61
392.12	1794.43
392.33	1792.59
392.54	1915.26
392.75	1860.78
392.96	1876.55
393.17	1755.52
393.38	2189.07
393.59	2060.26
393.80	1759.00
394.01	1849.52
394.22	1981.61
394.43	2222.46
394.64	1856.28
394.85	1970.97
395.06	1953.15
395.27	1978.13
395.48	1830.47
395.69	1730.53
395.90	1888.23
396.11	1912.80
396.32	1791.36
396.53	1910.75
396.74	1860.58
396.95	2033.22
397.16	1758.80
397.37	1706.57
397.58	2031.58
397.79	1912.19
398.00	1846.24
398.21	1788.29
398.42	1918.95
398.63	2172.69
398.84	1790.54
399.05	1761.87
399.26	2081.56
399.47	1959.29
399.68	1643.49
399.89	1753.27
400.10	1766.17
400.31	1840.30
400.52	1827.20
400.73	1773.54
400.94	1727.46
401.15	1934.51
401.36	1786.24
401.57	1872.25
401.78	2053.70
401.99	2027.49
402.20	1723.57
402.41	1927.75
402.62	2113.30
402.83	1871.64
403.04	1776.82
403.25	1950.90
403.46	1973.63
403.67	2166.75
403.88	1895.19
404.09	1893.76
404.30	1930.62
404.51	1918.54
404.72	1809.18
404.93	1975.88
405.14	1847.27
405.35	1904.82
405.56	1813.07
405.77	1796.07
405.98	1939.02
406.19	1880.65
406.40	1749.17
406.61	1790.95
406.82	1804.26
407.03	2199.72
407.24	1714.76
407.45	1826.79
407.66	1938.40
407.87	2019.71
408.08	1870.41
408.29	1889.05
408.49	1989.19
408.70	1886.38
408.91	1804.87
409.12	1878.60
409.33	1793.20
409.54	2066.81
409.75	1803.24
409.96	1796.89
410.17	2029.74
410.38	1892.53
410.59	1765.96
410.80	1897.65
411.01	1885.16
411.22	1878.60
411.43	1842.15
411.64	1779.48
411.85	1812.04
412.06	1787.67
412.27	1644.72
412.47	1788.90
412.68	1904.00
412.89	1969.33
413.10	1783.99
413.31	1707.19
413.52	2127.02
413.73	2169.00
413.94	1780.50
414.15	1914.44
414.36	1856.07
414.57	1820.23
414.78	1771.90
414.99	2117.19
415.19	2583.31
415.40	2632.46
415.61	2759.84
415.82	2622.22
416.03	2574.09
416.24	2384.25
416.45	2127.23
416.66	1957.65
416.87	1811.43
417.08	2011.11
417.29	1799.35
417.50	1918.74
417.70	2101.42
417.91	2076.44
418.12	2036.70
418.33	2081.56
418.54	2293.93
418.75	2432.17
418.96	2419.68
419.17	2619.15
419.38	3113.12
419.59	3093.25
419.79	2930.03
420.00	2832.55
420.21	2979.79
420.42	2379.53
420.63	2097.53
420.84	2021.75
421.05	1967.89
421.26	1940.86
421.47	1755.31
421.67	2082.58
421.88	1815.11
422.09	1770.88
422.30	1963.80
422.51	1803.24
422.72	2113.91
422.93	1975.06
423.14	1824.54
423.35	1703.09
423.55	1733.20
423.76	1819.83
423.97	1833.14
424.18	1732.38
424.39	1926.93
424.60	2056.57
424.81	1890.68
425.02	2011.31
425.22	2120.06
425.43	2088.93
425.64	2263.42
425.85	2225.53
426.06	2537.64
426.27	2406.16
426.48	2400.42
426.68	2364.38
426.89	2468.01
427.10	2557.71
427.31	2101.22
427.52	1913.62
427.73	2105.11
427.94	2045.51
428.14	1918.54
428.35	1786.44
428.56	2104.49
428.77	2015.82
428.98	1916.28
429.19	1996.36
429.40	2104.70
429.60	2156.72
429.81	2198.49
430.02	2099.99
430.23	2046.94
430.44	2103.26
430.65	1869.59
430.85	1876.76
431.06	1974.65
431.27	1719.88
431.48	1830.68
431.69	1878.81
431.90	1914.44
432.10	1908.50
432.31	1881.26
432.52	1917.10
432.73	2479.48
432.94	2418.24
433.15	2277.75
433.35	2145.86
433.56	2353.73
433.77	2118.42
433.98	2118.62
434.19	1982.02
434.40	2023.19
434.60	1957.86
434.81	1832.11
435.02	1902.15
435.23	1912.19
435.44	1856.69
435.64	1720.91
435.85	1762.48
436.06	1871.23
436.27	1844.20
436.48	1718.66
436.68	1799.35
436.89	2136.65
437.10	2007.62
437.31	1824.13
437.52	1921.20
437.73	1923.86
437.93	1939.63
438.14	1848.09
438.35	1696.74
438.56	1862.42
438.77	1893.14
438.97	1939.43
439.18	1764.12
439.39	2024.01
439.60	1753.88
439.80	1678.92
440.01	1806.72
440.22	1820.44
440.43	1973.22
440.64	1729.51
440.84	1858.33
441.05	1784.40
441.26	2262.19
441.47	1857.30
441.68	1757.98
441.88	1865.09
442.09	1851.16
442.30	1930.01
442.51	1855.87
442.71	1831.09
442.92	1917.92
443.13	1762.07
443.34	1753.47
443.55	1786.24
443.75	1975.68
443.96	1777.84
444.17	1755.11
444.38	2041.42
444.58	1778.66
444.79	1876.96
445.00	1836.21
445.21	1914.85
445.41	1865.70
445.62	1612.78
445.83	1865.29
446.04	1922.63
446.24	1746.10
446.45	1647.80
446.66	1786.85
446.87	1982.43
447.07	1821.46
447.28	1977.72
447.49	1843.99
447.70	2001.48
447.90	2019.30
448.11	1819.42
448.32	1888.84
448.53	2075.62
448.73	2074.18
448.94	1831.09
449.15	1946.39
449.36	1917.51
449.56	1956.42
449.77	1781.73
449.98	1739.75
450.19	1901.54
450.39	1951.92
450.60	1984.89
450.81	1960.32
451.02	2026.26
451.22	2169.41
451.43	1849.52
451.64	1865.49
451.84	1957.45
452.05	2108.18
452.26	1894.58
452.47	1872.25
452.67	1885.16
452.88	2104.90
453.09	1783.99
453.30	1760.02
453.50	2020.12
453.71	2109.00
453.92	1783.37
454.12	1902.36
454.33	1814.50
454.54	1863.45
454.75	1750.60
454.95	1753.06
455.16	1916.69
455.37	1967.89
455.57	1843.38
455.78	1825.35
455.99	1881.47
456.19	1908.50
456.40	1749.58
456.61	1845.22
456.82	1931.23
457.02	2015.82
457.23	1878.60
457.44	1976.49
457.64	1828.22
457.85	1974.04
458.06	1845.63
458.26	1971.78
458.47	1912.19
458.68	2025.03
458.89	1779.68
459.09	1966.25
459.30	2227.99
459.51	1979.16
459.71	1773.75
459.92	1823.31
460.13	2002.71
460.33	2205.25
460.54	1805.49
460.75	1828.02
460.95	1779.68
461.16	1943.32
461.37	1807.95
461.57	1845.02
461.78	1933.08
461.99	1802.42
462.19	2042.23
462.40	1802.83
462.61	2239.25
462.81	2072.13
463.02	1779.28
463.23	1820.23
463.43	2028.10
463.64	1873.28
463.85	2776.23
464.05	1818.19
464.26	2358.65
464.47	2112.48
464.67	2001.48
464.88	1894.58
465.09	1823.51
465.29	1942.29
465.50	1934.51
465.71	1821.67
465.91	1857.92
466.12	1873.48
466.33	1873.69
466.53	1802.83
466.74	2075.62
466.94	1879.22
467.15	1824.74
467.36	2000.25
467.56	1809.18
467.77	1938.61
467.98	1863.24
468.18	1795.25
468.39	1842.97
468.60	2157.54
468.80	1862.83
469.01	1783.17
469.21	1973.42
469.42	2065.38
469.63	1877.17
469.83	1820.64
470.04	2096.30
470.25	2171.87
470.45	1934.51
470.66	1827.81
470.86	2018.07
471.07	1877.17
471.28	1903.59
471.48	1983.46
471.69	1942.91
471.90	2371.14
472.10	1815.32
472.31	1838.26
472.51	1826.38
472.72	1839.49
472.93	1753.88
473.13	1946.80
473.34	1924.89
473.54	1903.38
473.75	1831.91
473.96	2014.59
474.16	1943.93
474.37	2013.15
474.57	1935.94
474.78	1863.04
474.99	2023.80
475.19	1995.34
475.40	1835.59
475.60	1756.54
475.81	2092.41
476.02	1925.91
476.22	1897.03
476.43	2038.75
476.63	1976.29
476.84	2159.17
477.05	1734.02
477.25	1836.21
477.46	2305.40
477.66	1946.18
477.87	1707.80
478.08	1814.91
478.28	2034.04
478.49	1895.60
478.69	1771.70
478.90	1812.25
479.10	1984.28
479.31	2123.54
479.52	1899.08
479.72	1952.53
479.93	1987.35
480.13	1881.88
480.34	1805.49
480.54	1902.56
480.75	1827.81
480.96	2055.34
481.16	1757.77
481.37	1927.75
481.57	2023.60
481.78	1964.82
481.98	2004.35
482.19	1904.61
482.40	2158.97
482.60	2026.67
482.81	1922.22
483.01	1846.24
483.22	2121.70
483.42	2080.33
483.63	1979.77
483.83	1930.42
484.04	1882.29
484.24	2033.84
484.45	1886.18
484.66	1731.97
484.86	1992.47
485.07	1837.64
485.27	1883.72
485.48	1817.98
485.68	2097.32
485.89	1836.82
486.09	1922.22
486.30	1847.06
486.50	1966.87
486.71	1962.16
486.91	1978.13
487.12	2061.08
487.33	2290.24
487.53	2281.23
487.74	2105.52
487.94	2015.00
488.15	2124.36
488.35	2183.75
488.56	2076.64
488.76	2047.15
488.97	2027.69
489.17	2122.11
489.38	1959.91
489.58	1915.47
489.79	2016.63
489.99	1984.07
490.20	1890.48
490.40	1966.46
490.61	2004.76
490.81	1889.25
491.02	1886.38
491.22	1931.44
491.43	2052.47
491.63	1973.01
491.84	1985.51
492.04	1778.87
492.25	2019.09
492.45	1888.64
492.66	1862.01
492.86	1723.98
493.07	1932.67
493.27	2216.31
493.48	1723.98
493.68	1861.60
493.89	1898.06
494.09	2037.73
494.30	1823.51
494.50	2099.58
494.71	1997.59
494.91	1833.55
495.12	1939.43
495.32	2043.26
495.53	2015.00
495.73	1785.01
495.94	1848.09
496.14	1723.37
496.35	2157.54
496.55	1883.93
496.76	1853.00
496.96	1904.00
497.17	1914.24
497.37	1987.55
497.58	1836.00
497.78	1773.95
497.98	1883.31
498.19	1911.37
498.39	1924.89
498.60	1961.34
498.80	1763.10
499.01	2034.86
499.21	1798.53
499.42	1888.64
499.62	1893.55
499.83	2191.12
500.03	1751.83
500.24	1908.91
500.44	2089.75
500.64	2038.96
500.85	1840.10
501.05	1969.12
501.26	1744.46
501.46	2106.54
501.67	1804.87
501.87	1753.06
502.08	1773.34
502.28	1855.46
502.48	1941.47
502.69	2000.87
502.89	1804.87
503.10	1885.36
503.30	1945.16
503.51	1929.80
503.71	1779.28
503.92	2047.35
504.12	2000.87
504.32	1941.06
504.53	2156.92
504.73	2141.97
504.94	2120.67
505.14	2222.87
505.35	2265.46
505.55	2195.01
505.75	2138.28
505.96	2212.01
506.16	2325.67
506.37	2010.08
506.57	1921.81
506.78	1999.23
506.98	2111.25
507.18	1868.98
507.39	1853.62
507.59	1935.33
507.80	1908.71
508.00	1987.55
508.20	2061.28
508.41	1935.54
508.61	2133.57
508.82	2104.90
509.02	2001.28
509.22	1802.42
509.43	1782.76
509.63	1871.43
509.84	1879.83
510.04	1779.48
510.24	2129.48
510.45	2018.68
510.65	1789.72
510.86	1917.51
511.06	1829.66
511.26	2076.03
511.47	2001.48
511.67	1867.54
511.88	2026.06
512.08	2073.57
512.28	1758.80
512.49	1958.06
512.69	1944.34
512.90	1995.54
513.10	1836.82
513.30	1902.56
513.51	1997.79
513.71	2158.97
513.91	1920.79
514.12	1934.10
514.32	2091.39
514.53	1976.49
514.73	2071.93
514.93	2038.75
515.14	2145.66
515.34	2364.18
515.54	2231.26
515.75	2287.58
515.95	2449.99
516.15	2476.61
516.36	2204.64
516.56	2118.21
516.77	1801.19
516.97	2116.58
517.17	1977.93
517.38	2050.43
517.58	2253.18
517.78	2076.44
517.99	2276.52
518.19	2314.20
518.39	2604.40
518.60	2399.20
518.80	2249.28
519.00	2273.65
519.21	2118.83
519.41	2313.18
519.61	1934.92
519.82	2037.73
520.02	2021.96
520.22	2016.63
520.43	1984.48
520.63	1977.31
520.83	1922.02
521.04	1865.29
521.24	2204.64
521.44	2234.74
521.65	2296.39
521.85	2511.63
522.05	2272.43
522.26	2165.73
522.46	2371.75
522.66	2179.86
522.87	1950.90
523.07	2106.34
523.27	1962.16
523.48	2251.54
523.68	2031.99
523.88	2024.83
524.09	2175.56
524.29	2093.02
524.49	1931.23
524.70	2240.48
524.90	2380.56
525.10	2284.10
525.31	2021.14
525.51	1919.97
525.71	2137.06
525.91	2065.99
526.12	1868.77
526.32	1788.70
526.52	1877.17
526.73	1883.93
526.93	1919.97
527.13	1761.25
527.34	1929.39
527.54	1959.70
527.74	1896.83
527.94	1840.30
528.15	1862.83
528.35	1985.10
528.55	1998.41
528.76	1970.97
528.96	1751.63
529.16	2083.81
529.36	2028.31
529.57	1789.72
529.77	2092.82
529.97	1839.28
530.18	1975.68
530.38	1870.61
530.58	1986.12
530.78	1976.49
530.99	1880.65
531.19	1989.40
531.39	1854.85
531.60	1960.32
531.80	1851.77
532.00	2037.32
532.20	1967.48
532.41	1851.16
532.61	1844.20
532.81	1869.59
533.01	1899.90
533.22	2006.19
533.42	1977.52
533.62	1723.37
533.82	2082.78
534.03	1922.84
534.23	1948.44
534.43	1826.58
534.63	1877.78
534.84	1964.62
535.04	1909.32
535.24	1901.54
535.44	2242.94
535.65	1865.49
535.85	1850.34
536.05	1823.31
536.25	1944.96
536.46	1840.71
536.66	2084.22
536.86	2008.03
537.06	2091.80
537.27	2167.77
537.47	1989.40
537.67	1878.60
537.87	2149.14
538.08	1922.84
538.28	1813.27
538.48	1848.70
538.68	1951.10
538.88	2044.90
539.09	1788.08
539.29	1960.52
539.49	2085.45
539.69	1980.80
539.90	1971.99
540.10	1835.59
540.30	2164.09
540.50	1951.30
540.70	1831.09
540.91	1952.53
541.11	2121.70
541.31	2298.23
541.51	2136.24
541.72	2186.41
541.92	2228.80
542.12	2082.58
542.32	1987.76
542.52	1952.94
542.73	1937.17
542.93	2045.72
543.13	1930.21
543.33	2060.46
543.53	2177.61
543.74	2208.12
543.94	2032.61
544.14	2234.95
544.34	2387.93
544.54	2252.15
544.75	2363.97
544.95	2544.60
545.15	2424.79
545.35	2446.71
545.55	2259.11
545.75	2058.21
545.96	2391.62
546.16	1976.70
546.36	1999.02
546.56	2034.86
546.76	2167.37
546.97	2240.68
547.17	1960.11
547.37	2008.85
547.57	1884.75
547.77	2025.03
547.97	1953.97
548.18	1970.97
548.38	2018.27
548.58	2509.17
548.78	2556.48
548.98	2911.19
549.18	3211.22
549.39	3405.36
549.59	3042.46
549.79	2710.90
549.99	2823.53
550.19	2645.36
550.39	2516.54
550.60	2250.51
550.80	2287.38
551.00	2244.16
551.20	2039.98
551.40	1983.46
551.60	2108.18
551.80	2051.66
552.01	2070.50
552.21	1998.61
552.41	2053.70
552.61	2234.74
552.81	2036.50
553.01	1864.27
553.21	2066.20
553.42	1855.46
553.62	1863.86
553.82	1861.81
554.02	2145.45
554.22	2058.41
554.42	1826.79
554.62	2006.19
554.83	2344.31
555.03	2602.97
555.23	2540.51
555.43	2905.04
555.63	2876.17
555.83	2742.64
556.03	2455.51
556.23	2284.51
556.44	2428.07
556.64	2537.23
556.84	2112.48
557.04	2298.84
557.24	2342.67
557.44	2217.95
557.64	2130.09
557.84	1952.74
558.04	2005.17
558.25	2125.38
558.45	1917.51
558.65	2007.42
558.85	2072.95
559.05	1851.98
559.25	1985.51
559.45	2184.77
559.65	2550.54
559.85	3070.11
560.05	2478.25
560.26	2603.58
560.46	2644.13
560.66	2444.05
560.86	2281.03
561.06	2151.60
561.26	2376.67
561.46	2222.66
561.66	2043.87
561.86	2150.16
562.06	1987.14
562.26	2002.71
562.47	2008.65
562.67	1854.03
562.87	2097.32
563.07	1843.38
563.27	2000.05
563.47	2028.10
563.67	1980.80
563.87	2127.23
564.07	2018.27
564.27	2157.74
564.47	2238.23
564.67	2314.00
564.87	2193.17
565.08	2238.43
565.28	2087.29
565.48	2243.75
565.68	2144.02
565.88	2110.02
566.08	2239.04
566.28	1995.75
566.48	1832.93
566.68	1914.24
566.88	1910.55
567.08	2067.01
567.28	1940.04
567.48	1984.28
567.68	2105.31
567.88	1903.18
568.08	2094.66
568.28	2190.92
568.48	2047.97
568.68	2237.00
568.89	2070.50
569.09	1840.51
569.29	2119.85
569.49	2090.98
569.69	1871.02
569.89	1842.15
570.09	1725.41
570.29	1877.37
570.49	1770.88
570.69	1833.14
570.89	2050.43
571.09	2195.42
571.29	1749.37
571.49	2020.94
571.69	1958.88
571.89	1977.72
572.09	1865.70
572.29	1842.15
572.49	2012.33
572.69	1994.93
572.89	1941.27
573.09	1789.11
573.29	2068.65
573.49	2154.87
573.69	2083.81
573.89	2178.22
574.09	2014.18
574.29	2197.06
574.49	1916.28
574.69	1854.44
574.89	1810.40
575.09	1835.80
575.29	1829.45
575.49	1925.50
575.69	1972.81
575.89	1772.72
576.09	1952.33
576.29	1938.40
576.49	1857.51
576.69	1974.24
576.89	1913.21
577.09	1973.83
577.29	1807.54
577.49	2220.82
577.69	1891.91
577.89	2026.47
578.09	1959.91
578.29	1750.40
578.49	1959.09
578.69	1860.17
578.89	2049.61
579.09	1952.94
579.29	1854.23
579.49	2073.36
579.69	1907.48
579.89	2210.17
580.09	1771.49
580.29	1795.86
580.49	1878.40
580.69	1816.75
580.89	1924.27
581.09	1871.43
581.29	1851.16
581.49	1885.36
581.69	1789.52
581.89	1799.35
582.09	1808.56
582.28	1825.56
582.48	2041.21
582.68	2134.39
582.88	2209.96
583.08	2046.74
583.28	2021.96
583.48	1998.82
583.68	1909.94
583.88	1966.46
584.08	1980.59
584.28	1940.45
584.48	2174.74
584.68	1983.46
584.88	1891.50
585.08	2037.32
585.28	2086.68
585.48	2118.42
585.68	2009.26
585.87	2015.41
586.07	2017.45
586.27	1956.63
586.47	2025.85
586.67	1910.35
586.87	1948.85
587.07	1908.91
587.27	1811.63
587.47	2000.25
587.67	2284.10
587.87	2624.06
588.07	2443.43
588.27	2410.05
588.46	2701.89
588.66	2709.87
588.86	2393.46
589.06	2355.78
589.26	2342.47
589.46	2246.62
589.66	1995.95
589.86	1927.96
590.06	2037.52
590.26	2199.72
590.46	2121.90
590.66	2246.83
590.85	2208.32
591.05	2298.84
591.25	2064.97
591.45	2085.86
591.65	2176.38
591.85	2160.40
592.05	2172.89
592.25	2289.42
592.45	2426.23
592.64	2245.80
592.84	2168.59
593.04	2034.25
593.24	2463.50
593.44	2098.55
593.64	2133.98
593.84	2191.94
594.04	2091.59
594.24	2251.33
594.43	1962.36
594.63	2014.59
