SpectraSuite Data File
++++++++++++++++++++++++++++++++++++
Date: Thu Mar 30 16:04:33 PDT 2017
User: UCSD _CER
Dark Spectrum Present: No
Reference Spectrum Present: No
Number of Sampled Component Spectra: 1
Spectrometers: USB4C00073
Integration Time (usec): 250000 (USB4C00073)
Spectra Averaged: 10 (USB4C00073)
Boxcar Smoothing: 0 (USB4C00073)
Correct for Electrical Dark: No (USB4C00073)
Strobe/Lamp Enabled: No (USB4C00073)
Correct for Detector Non-linearity: No (USB4C00073)
Correct for Stray Light: No (USB4C00073)
Number of Pixels in Processed Spectrum: 3648
>>>>>Begin Processed Spectral Data<<<<<
345.37	1279.16
345.58	1279.16
345.80	1279.16
346.01	1281.00
346.22	1272.61
346.43	1990.22
346.65	1769.85
346.86	2110.02
347.07	2058.41
347.28	1808.77
347.50	1771.90
347.71	1925.71
347.92	1708.62
348.13	1819.83
348.35	1714.97
348.56	1923.04
348.77	1759.41
348.98	1820.85
349.20	1675.44
349.41	1927.75
349.62	1955.20
349.83	1865.29
350.05	1717.84
350.26	1953.76
350.47	2082.78
350.68	1787.26
350.90	1740.16
351.11	2098.35
351.32	2056.16
351.53	1813.89
351.75	1743.44
351.96	1963.59
352.17	1905.84
352.38	1852.80
352.60	1861.40
352.81	1933.90
353.02	2128.66
353.23	1769.65
353.44	1805.28
353.66	1836.82
353.87	1874.51
354.08	1888.84
354.29	1816.75
354.51	1849.32
354.72	1878.40
354.93	1802.21
355.14	1735.04
355.35	1755.31
355.57	2049.20
355.78	1830.68
355.99	1896.62
356.20	1933.08
356.42	1925.71
356.63	1910.35
356.84	1816.34
357.05	2003.32
357.26	2188.05
357.48	1896.21
357.69	1842.56
357.90	1945.37
358.11	1878.40
358.32	1796.27
358.54	1849.32
358.75	1863.65
358.96	1995.54
359.17	1800.78
359.38	1777.64
359.60	1984.28
359.81	1887.41
360.02	1818.19
360.23	1754.49
360.44	1839.08
360.66	2041.42
360.87	1762.28
361.08	1734.83
361.29	1971.37
361.50	1898.88
361.72	1771.49
361.93	1840.51
362.14	1912.19
362.35	1734.02
362.56	1872.66
362.77	1726.03
362.99	1992.67
363.20	1916.90
363.41	1870.61
363.62	1711.28
363.83	1979.77
364.05	2020.73
364.26	1708.01
364.47	1767.40
364.68	2058.00
364.89	1818.60
365.10	1761.66
365.32	1822.69
365.53	1807.33
365.74	1866.11
365.95	1805.69
366.16	1705.96
366.37	1898.67
366.59	1880.44
366.80	1806.72
367.01	1682.20
367.22	2144.22
367.43	2289.01
367.64	1813.68
367.86	1785.42
368.07	1977.72
368.28	2055.96
368.49	1722.96
368.70	1850.13
368.91	1869.59
369.12	1887.00
369.34	1720.91
369.55	1731.97
369.76	1910.96
369.97	1855.87
370.18	1735.65
370.39	1749.99
370.60	1733.61
370.82	1793.82
371.03	1764.53
371.24	1749.17
371.45	1983.46
371.66	1981.00
371.87	1816.34
372.08	1766.58
372.30	1764.53
372.51	2017.25
372.72	1871.64
372.93	1762.89
373.14	2069.06
373.35	1806.72
373.56	1732.38
373.78	1804.87
373.99	2027.90
374.20	2251.54
374.41	1799.35
374.62	1808.97
374.83	2106.13
375.04	1869.39
375.25	1813.27
375.47	1761.87
375.68	1841.53
375.89	1997.18
376.10	1814.91
376.31	1918.95
376.52	1966.25
376.73	1966.25
376.94	1821.26
377.15	1797.91
377.37	1909.94
377.58	1881.88
377.79	1682.82
378.00	1717.02
378.21	1946.39
378.42	1973.42
378.63	1826.79
378.84	1862.83
379.05	2031.18
379.27	1894.99
379.48	1927.55
379.69	1716.20
379.90	2039.16
380.11	1659.47
380.32	1806.51
380.53	1889.66
380.74	2075.82
380.95	1928.57
381.16	1766.99
381.37	1777.43
381.59	2084.22
381.80	2007.62
382.01	1748.35
382.22	1680.36
382.43	1951.51
382.64	1932.87
382.85	1739.34
383.06	1877.78
383.27	2008.24
383.48	1858.74
383.69	1837.03
383.91	1727.05
384.12	1973.63
384.33	1958.47
384.54	1787.06
384.75	1702.68
384.96	2288.40
385.17	1994.31
385.38	1791.36
385.59	1757.57
385.80	1991.85
386.01	2071.73
386.22	1878.19
386.43	1817.98
386.64	2167.77
386.86	1890.28
387.07	1924.27
387.28	1716.40
387.49	1843.99
387.70	2072.75
387.91	1893.14
388.12	1725.21
388.33	1943.52
388.54	1817.98
388.75	1764.73
388.96	1850.54
389.17	1832.32
389.38	1894.37
389.59	1871.64
389.80	1828.63
390.01	1879.01
390.22	1870.82
390.43	1905.63
390.64	1676.47
390.86	1920.38
391.07	2033.63
391.28	1810.40
391.49	1816.14
391.70	1755.31
391.91	1812.45
392.12	1799.96
392.33	1803.24
392.54	1901.54
392.75	1864.27
392.96	1879.83
393.17	1780.91
393.38	2189.69
393.59	2064.97
393.80	1732.17
394.01	1882.29
394.22	1960.93
394.43	2227.37
394.64	1848.70
394.85	2010.29
395.06	1989.60
395.27	1959.29
395.48	1844.81
395.69	1761.05
395.90	1886.18
396.11	1919.15
396.32	1746.10
396.53	1913.42
396.74	1884.54
396.95	2042.23
397.16	1766.78
397.37	1705.96
397.58	2010.08
397.79	1899.70
398.00	1856.48
398.21	1803.24
398.42	1948.85
398.63	2166.55
398.84	1773.75
399.05	1768.22
399.26	2066.81
399.47	1963.59
399.68	1654.35
399.89	1751.63
400.10	1777.02
400.31	1848.70
400.52	1836.21
400.73	1780.91
400.94	1724.18
401.15	1925.50
401.36	1764.53
401.57	1859.15
401.78	2037.52
401.99	2016.84
402.20	1691.62
402.41	1927.96
402.62	2109.41
402.83	1891.91
403.04	1770.67
403.25	1940.86
403.46	1986.32
403.67	2174.94
403.88	1923.66
404.09	1916.69
404.30	1979.16
404.51	1953.76
404.72	1843.99
404.93	1934.92
405.14	1864.88
405.35	1918.95
405.56	1812.86
405.77	1791.97
405.98	1919.36
406.19	1884.75
406.40	1770.06
406.61	1785.83
406.82	1801.39
407.03	2212.83
407.24	1713.95
407.45	1826.58
407.66	1935.54
407.87	2017.45
408.08	1840.30
408.29	1872.87
408.49	1982.02
408.70	1890.89
408.91	1796.68
409.12	1884.54
409.33	1787.88
409.54	2076.03
409.75	1766.58
409.96	1772.52
410.17	2010.29
410.38	1877.99
410.59	1755.93
410.80	1885.16
411.01	1899.70
411.22	1879.22
411.43	1854.85
411.64	1751.83
411.85	1798.94
412.06	1782.76
412.27	1644.52
412.47	1760.23
412.68	1900.31
412.89	1961.54
413.10	1783.78
413.31	1682.61
413.52	2144.63
413.73	2135.01
413.94	1744.87
414.15	1935.33
414.36	1845.63
414.57	1824.33
414.78	1760.84
414.99	2181.09
415.19	2650.07
415.40	2735.06
415.61	2894.60
415.82	2746.53
416.03	2698.61
416.24	2455.92
416.45	2158.15
416.66	1976.70
416.87	1847.47
417.08	2087.70
417.29	1837.23
417.50	1936.97
417.70	2099.37
417.91	2129.27
418.12	2055.75
418.33	2154.87
418.54	2335.91
418.75	2515.11
418.96	2486.85
419.17	2760.66
419.38	3278.39
419.59	3280.85
419.79	3133.60
420.00	3001.30
420.21	3101.65
420.42	2426.64
420.63	2142.58
420.84	2064.97
421.05	1950.49
421.26	1939.43
421.47	1752.24
421.67	2048.58
421.88	1804.67
422.09	1760.43
422.30	1932.05
422.51	1803.85
422.72	2115.96
422.93	1998.82
423.14	1810.40
423.35	1700.22
423.55	1738.93
423.76	1806.92
423.97	1823.31
424.18	1705.55
424.39	1913.62
424.60	2077.87
424.81	1867.13
425.02	2064.76
425.22	2138.28
425.43	2168.59
425.64	2316.66
425.85	2328.54
426.06	2638.81
426.27	2455.10
426.48	2482.75
426.68	2420.49
426.89	2525.76
427.10	2634.10
427.31	2194.19
427.52	1949.26
427.73	2111.05
427.94	2046.54
428.14	1923.04
428.35	1815.52
428.56	2104.08
428.77	2015.82
428.98	1936.56
429.19	2011.51
429.40	2136.44
429.60	2206.69
429.81	2259.93
430.02	2175.97
430.23	2070.50
430.44	2114.32
430.65	1891.91
430.85	1905.84
431.06	1958.27
431.27	1705.34
431.48	1807.95
431.69	1832.73
431.90	1926.11
432.10	1926.32
432.31	1890.07
432.52	1944.14
432.73	2543.17
432.94	2467.80
433.15	2346.36
433.35	2227.17
433.56	2373.19
433.77	2160.81
433.98	2112.07
434.19	2001.48
434.40	2057.80
434.60	1970.56
434.81	1843.38
435.02	1902.77
435.23	1926.52
435.44	1859.97
435.64	1691.42
435.85	1766.99
436.06	1877.58
436.27	1858.74
436.48	1716.20
436.68	1747.33
436.89	2093.43
437.10	1969.53
437.31	1799.14
437.52	1900.92
437.73	1926.73
437.93	1933.90
438.14	1853.00
438.35	1698.79
438.56	1827.40
438.77	1881.88
438.97	1920.38
439.18	1736.27
439.39	2039.37
439.60	1752.86
439.80	1696.54
440.01	1823.72
440.22	1815.52
440.43	1991.04
440.64	1709.03
440.84	1833.34
441.05	1777.23
441.26	2250.51
441.47	1857.10
441.68	1771.70
441.88	1867.95
442.09	1890.89
442.30	1946.80
442.51	1868.16
442.71	1862.42
442.92	1934.92
443.13	1749.17
443.34	1751.42
443.55	1778.05
443.75	1976.29
443.96	1757.77
444.17	1751.01
444.38	2041.01
444.58	1778.87
444.79	1877.99
445.00	1836.00
445.21	1869.18
445.41	1859.56
445.62	1617.90
445.83	1887.20
446.04	1935.33
446.24	1747.12
446.45	1623.63
446.66	1772.93
446.87	1937.58
447.07	1833.96
447.28	1997.59
447.49	1821.67
447.70	1974.45
447.90	2046.33
448.11	1828.84
448.32	1887.20
448.53	2079.51
448.73	2079.30
448.94	1797.91
449.15	1951.92
449.36	1892.12
449.56	1951.51
449.77	1819.42
449.98	1757.16
450.19	1891.09
450.39	1986.12
450.60	1998.61
450.81	1984.89
451.02	2052.06
451.22	2199.93
451.43	1857.10
451.64	1893.96
451.84	1950.28
452.05	2143.81
452.26	1920.38
452.47	1884.95
452.67	1882.29
452.88	2123.13
453.09	1767.19
453.30	1727.67
453.50	1989.81
453.71	2088.11
453.92	1800.37
454.12	1895.40
454.33	1817.37
454.54	1859.97
454.75	1757.77
454.95	1773.54
455.16	1921.40
455.37	1980.39
455.57	1841.74
455.78	1799.35
455.99	1905.02
456.19	1908.30
456.40	1753.47
456.61	1848.50
456.82	1893.55
457.02	2002.30
457.23	1878.60
457.44	1971.37
457.64	1832.73
457.85	1973.63
458.06	1849.32
458.26	2013.97
458.47	1912.80
458.68	2062.30
458.89	1786.03
459.09	1983.05
459.30	2207.10
459.51	1976.70
459.71	1769.04
459.92	1813.89
460.13	1996.36
460.33	2169.82
460.54	1822.90
460.75	1832.11
460.95	1786.24
461.16	1948.03
461.37	1777.43
461.57	1860.58
461.78	1924.68
461.99	1807.95
462.19	2043.46
462.40	1826.58
462.61	2412.71
462.81	2085.04
463.02	1775.59
463.23	1849.11
463.43	2010.49
463.64	1882.29
463.85	2792.41
464.05	1804.26
464.26	2327.11
464.47	2106.75
464.67	2001.89
464.88	1890.89
465.09	1828.43
465.29	1924.89
465.50	1954.79
465.71	1819.83
465.91	1862.01
466.12	1897.03
466.33	1882.70
466.53	1776.61
466.74	2078.48
466.94	1866.72
467.15	1846.65
467.36	2017.04
467.56	1799.75
467.77	1973.01
467.98	1886.18
468.18	1776.00
468.39	1868.57
468.60	2139.72
468.80	1853.00
469.01	1788.49
469.21	1980.59
469.42	2066.20
469.63	1893.35
469.83	1830.88
470.04	2087.49
470.25	2222.25
470.45	1937.79
470.66	1827.40
470.86	1990.01
471.07	1895.60
471.28	1920.18
471.48	1970.56
471.69	1938.40
471.90	2376.87
472.10	1848.91
472.31	1821.87
472.51	1833.96
472.72	1816.55
472.93	1744.46
473.13	1925.30
473.34	1955.81
473.54	1902.97
473.75	1836.00
473.96	1994.52
474.16	1926.11
474.37	2010.08
474.57	1919.97
474.78	1836.62
474.99	2038.34
475.19	1993.08
475.40	1843.79
475.60	1738.93
475.81	2092.41
476.02	1926.73
476.22	1933.69
476.43	2058.41
476.63	1951.71
476.84	2170.64
477.05	1749.78
477.25	1824.74
477.46	2286.56
477.66	1935.74
477.87	1740.57
478.08	1832.32
478.28	2045.92
478.49	1902.77
478.69	1771.70
478.90	1838.05
479.10	1982.64
479.31	2138.49
479.52	1898.47
479.72	1966.66
479.93	2002.50
480.13	1843.38
480.34	1806.10
480.54	1897.24
480.75	1803.24
480.96	2053.50
481.16	1774.16
481.37	1924.48
481.57	2018.07
481.78	1997.38
481.98	1993.08
482.19	1886.38
482.40	2150.16
482.60	2034.25
482.81	1952.74
483.01	1850.95
483.22	2094.05
483.42	2094.46
483.63	1979.77
483.83	1900.92
484.04	1874.30
484.24	2030.97
484.45	1905.23
484.66	1731.76
484.86	1961.54
485.07	1815.11
485.27	1879.83
485.48	1811.84
485.68	2064.56
485.89	1828.22
486.09	1920.79
486.30	1815.11
486.50	1920.59
486.71	1977.11
486.91	1973.83
487.12	2066.40
487.33	2271.40
487.53	2308.68
487.74	2045.92
487.94	2010.08
488.15	2113.30
488.35	2205.66
488.56	2109.00
488.76	2076.03
488.97	2094.46
489.17	2134.19
489.38	1967.28
489.58	1924.27
489.79	2011.72
489.99	2006.39
490.20	1894.99
490.40	1982.43
490.61	2007.21
490.81	1871.02
491.02	1885.97
491.22	1935.33
491.43	2058.00
491.63	1924.27
491.84	2007.62
492.04	1797.30
492.25	2001.07
492.45	1885.77
492.66	1836.21
492.86	1743.44
493.07	1917.31
493.27	2200.75
493.48	1745.07
493.68	1866.52
493.89	1906.04
494.09	2037.32
494.30	1814.91
494.50	2089.13
494.71	2002.91
494.91	1825.76
495.12	1941.27
495.32	2032.61
495.53	2014.18
495.73	1803.85
495.94	1889.46
496.14	1705.96
496.35	2167.16
496.55	1896.21
496.76	1861.19
496.96	1912.60
497.17	1930.21
497.37	2011.72
497.58	1825.15
497.78	1793.82
497.98	1883.72
498.19	1940.45
498.39	1938.20
498.60	1979.36
498.80	1751.42
499.01	2047.56
499.21	1789.92
499.42	1890.48
499.62	1885.16
499.83	2215.70
500.03	1754.49
500.24	1923.66
500.44	2093.02
500.64	2050.22
500.85	1822.08
501.05	1963.39
501.26	1737.29
501.46	2107.16
501.67	1780.50
501.87	1765.55
502.08	1805.49
502.28	1882.08
502.48	1931.23
502.69	2023.39
502.89	1815.73
503.10	1881.06
503.30	1917.51
503.51	1911.57
503.71	1767.19
503.92	2048.17
504.12	1988.37
504.32	1946.59
504.53	2139.72
504.73	2155.90
504.94	2130.30
505.14	2243.14
505.35	2235.97
505.55	2224.50
505.75	2147.09
505.96	2242.73
506.16	2346.97
506.37	2020.53
506.57	1911.37
506.78	2002.91
506.98	2162.25
507.18	1852.80
507.39	1858.33
507.59	1939.84
507.80	1906.66
508.00	2000.46
508.20	2082.17
508.41	1940.66
508.61	2155.49
508.82	2091.39
509.02	2006.39
509.22	1811.43
509.43	1809.18
509.63	1839.08
509.84	1884.95
510.04	1792.38
510.24	2111.66
510.45	2031.79
510.65	1771.70
510.86	1902.97
511.06	1823.92
511.26	2078.89
511.47	2000.66
511.67	1896.01
511.88	2034.04
512.08	2081.56
512.28	1798.12
512.49	1963.18
512.69	1965.44
512.90	1953.15
513.10	1836.00
513.30	1920.18
513.51	1994.11
513.71	2130.09
513.91	1931.64
514.12	1944.34
514.32	2107.77
514.53	2003.94
514.73	2101.63
514.93	2048.17
515.14	2132.55
515.34	2365.61
515.54	2242.32
515.75	2353.94
515.95	2465.75
516.15	2493.40
516.36	2234.54
516.56	2141.97
516.77	1850.95
516.97	2119.65
517.17	1985.71
517.38	2057.59
517.58	2237.00
517.78	2084.22
517.99	2263.62
518.19	2375.03
518.39	2600.72
518.60	2461.86
518.80	2296.80
519.00	2288.81
519.21	2101.01
519.41	2309.08
519.61	1901.13
519.82	2045.31
520.02	1991.44
520.22	2008.24
520.43	1967.07
520.63	1985.51
520.83	1953.97
521.04	1875.53
521.24	2231.26
521.44	2221.43
521.65	2339.60
521.85	2526.58
522.05	2317.28
522.26	2203.00
522.46	2395.51
522.66	2170.64
522.87	1957.04
523.07	2121.70
523.27	1979.16
523.48	2220.82
523.68	2038.55
523.88	2019.09
524.09	2169.82
524.29	2105.31
524.49	1946.80
524.70	2266.69
524.90	2385.88
525.10	2315.23
525.31	2029.54
525.51	1966.25
525.71	2111.46
525.91	2050.63
526.12	1851.16
526.32	1790.74
526.52	1882.08
526.73	1866.72
526.93	1975.68
527.13	1776.00
527.34	1957.04
527.54	1972.40
527.74	1902.97
527.94	1817.16
528.15	1859.35
528.35	1996.36
528.55	2017.25
528.76	1949.26
528.96	1755.31
529.16	2078.07
529.36	2024.01
529.57	1774.97
529.77	2068.04
529.97	1833.75
530.18	1973.22
530.38	1860.17
530.58	1999.23
530.78	1942.29
530.99	1885.36
531.19	1998.20
531.39	1888.43
531.60	1968.10
531.80	1881.88
532.00	2028.31
532.20	1966.87
532.41	1857.51
532.61	1844.40
532.81	1874.92
533.01	1882.70
533.22	1958.47
533.42	2004.96
533.62	1730.12
533.82	2120.67
534.03	1927.96
534.23	1936.15
534.43	1822.08
534.63	1884.95
534.84	1948.44
535.04	1926.52
535.24	1895.60
535.44	2269.56
535.65	1882.49
535.85	1790.74
536.05	1817.16
536.25	1940.45
536.46	1844.61
536.66	2083.60
536.86	2011.51
537.06	2095.07
537.27	2168.80
537.47	2010.08
537.67	1892.73
537.87	2121.90
538.08	1941.27
538.28	1809.59
538.48	1838.67
538.68	1955.81
538.88	2060.87
539.09	1791.97
539.29	1905.43
539.49	2063.33
539.69	1976.49
539.90	1961.13
540.10	1846.65
540.30	2157.74
540.50	1920.38
540.70	1857.10
540.91	1977.93
541.11	2146.07
541.31	2290.65
541.51	2166.34
541.72	2199.93
541.92	2240.07
542.12	2086.06
542.32	2014.79
542.52	1929.80
542.73	1920.99
542.93	2065.17
543.13	1942.70
543.33	2084.83
543.53	2198.70
543.74	2191.53
543.94	2071.93
544.14	2246.01
544.34	2394.69
544.54	2295.98
544.75	2377.69
544.95	2553.61
545.15	2440.77
545.35	2461.66
545.55	2274.06
545.75	2092.00
545.96	2394.08
546.16	1967.28
546.36	2016.63
546.56	2022.37
546.76	2153.23
546.97	2230.85
547.17	1961.95
547.37	1997.18
547.57	1913.62
547.77	2035.48
547.97	1966.25
548.18	1978.54
548.38	2022.57
548.58	2523.92
548.78	2583.10
548.98	2964.03
549.18	3290.88
549.39	3492.61
549.59	3117.21
549.79	2804.69
549.99	2843.40
550.19	2680.38
550.39	2506.71
550.60	2300.69
550.80	2271.40
551.00	2265.05
551.20	2043.67
551.40	2003.12
551.60	2110.23
551.80	2090.98
552.01	2116.99
552.21	2008.24
552.41	2068.45
552.61	2256.86
552.81	2003.32
553.01	1858.74
553.21	2058.82
553.42	1885.56
553.62	1881.06
553.82	1850.34
554.02	2155.90
554.22	2048.38
554.42	1851.98
554.62	2009.06
554.83	2321.99
555.03	2623.45
555.23	2592.32
555.43	3011.54
555.63	2973.24
555.83	2799.98
556.03	2490.13
556.23	2336.94
556.44	2482.75
556.64	2564.47
556.84	2137.67
557.04	2343.49
557.24	2379.53
557.44	2271.20
557.64	2135.62
557.84	1970.35
558.04	2011.72
558.25	2111.66
558.45	1919.36
558.65	2036.50
558.85	2078.48
559.05	1882.29
559.25	2030.77
559.45	2186.62
559.65	2596.62
559.85	3083.83
560.05	2570.41
560.26	2663.79
560.46	2691.85
560.66	2496.06
560.86	2314.41
561.06	2162.65
561.26	2400.22
561.46	2234.13
561.66	2080.53
561.86	2159.17
562.06	2025.44
562.26	2015.82
562.47	2007.62
562.67	1859.76
562.87	2090.16
563.07	1857.51
563.27	1981.61
563.47	2010.49
563.67	1961.75
563.87	2111.87
564.07	2050.84
564.27	2157.54
564.47	2258.70
564.67	2347.38
564.87	2253.79
565.08	2291.47
565.28	2116.78
565.48	2244.16
565.68	2144.22
565.88	2094.66
566.08	2291.27
566.28	2028.31
566.48	1834.37
566.68	1935.13
566.88	1927.96
567.08	2061.69
567.28	1949.05
567.48	1981.41
567.68	2104.08
567.88	1907.27
568.08	2100.40
568.28	2189.28
568.48	2056.57
568.68	2224.91
568.89	2074.80
569.09	1839.49
569.29	2130.09
569.49	2096.30
569.69	1867.75
569.89	1851.36
570.09	1734.83
570.29	1870.82
570.49	1763.30
570.69	1842.15
570.89	2013.77
571.09	2180.47
571.29	1756.34
571.49	2014.59
571.69	1956.22
571.89	1991.65
572.09	1847.47
572.29	1812.04
572.49	2025.65
572.69	1983.25
572.89	1959.09
573.09	1774.77
573.29	2075.21
573.49	2152.62
573.69	2127.84
573.89	2198.08
574.09	1976.09
574.29	2194.19
574.49	1917.10
574.69	1889.46
574.89	1848.29
575.09	1826.38
575.29	1812.86
575.49	1918.13
575.69	1979.36
575.89	1784.40
576.09	1937.17
576.29	1970.97
576.49	1860.17
576.69	1973.63
576.89	1951.92
577.09	1996.36
577.29	1805.08
577.49	2220.41
577.69	1854.85
577.89	1974.65
578.09	1952.33
578.29	1754.49
578.49	1925.30
578.69	1851.36
578.89	2061.08
579.09	1961.34
579.29	1817.78
579.49	2040.80
579.69	1938.40
579.89	2217.75
580.09	1791.15
580.29	1763.30
580.49	1889.66
580.69	1817.78
580.89	1877.78
581.09	1862.01
581.29	1852.59
581.49	1882.49
581.69	1799.55
581.89	1809.38
582.09	1814.50
582.28	1824.74
582.48	2039.98
582.68	2157.54
582.88	2215.90
583.08	2068.24
583.28	2005.37
583.48	1977.93
583.68	1931.44
583.88	1986.94
584.08	1950.28
584.28	1927.34
584.48	2196.86
584.68	2010.70
584.88	1897.44
585.08	2064.15
585.28	2072.54
585.48	2128.45
585.68	2036.30
585.87	2056.16
586.07	2016.43
586.27	1949.87
586.47	1998.00
586.67	1921.40
586.87	1938.20
587.07	1880.04
587.27	1851.36
587.47	2013.36
587.67	2282.87
587.87	2668.50
588.07	2492.38
588.27	2503.23
588.46	2736.29
588.66	2772.54
588.86	2458.79
589.06	2411.07
589.26	2354.75
589.46	2275.29
589.66	1999.64
589.86	1964.62
590.06	2050.84
590.26	2211.81
590.46	2136.65
590.66	2329.15
590.85	2228.80
591.05	2347.38
591.25	2095.89
591.45	2098.14
591.65	2197.88
591.85	2206.69
592.05	2190.30
592.25	2317.89
592.45	2424.80
592.64	2269.15
592.84	2232.08
593.04	2036.91
593.24	2483.37
593.44	2073.16
593.64	2166.75
593.84	2167.16
594.04	2095.28
594.24	2278.98
594.43	1982.02
594.63	2028.31
