SpectraSuite Data File
++++++++++++++++++++++++++++++++++++
Date: Thu Mar 30 16:19:18 PDT 2017
User: UCSD _CER
Dark Spectrum Present: No
Reference Spectrum Present: No
Number of Sampled Component Spectra: 1
Spectrometers: USB4C00073
Integration Time (usec): 250000 (USB4C00073)
Spectra Averaged: 10 (USB4C00073)
Boxcar Smoothing: 0 (USB4C00073)
Correct for Electrical Dark: No (USB4C00073)
Strobe/Lamp Enabled: No (USB4C00073)
Correct for Detector Non-linearity: No (USB4C00073)
Correct for Stray Light: No (USB4C00073)
Number of Pixels in Processed Spectrum: 3648
>>>>>Begin Processed Spectral Data<<<<<
345.37	1268.92
345.58	1268.92
345.80	1268.92
346.01	1281.82
346.22	1275.07
346.43	1977.72
346.65	1808.36
346.86	2116.99
347.07	2055.96
347.28	1794.84
347.50	1777.23
347.71	1954.38
347.92	1693.26
348.13	1822.69
348.35	1707.39
348.56	1926.73
348.77	1776.41
348.98	1814.30
349.20	1681.38
349.41	1892.53
349.62	1990.01
349.83	1875.12
350.05	1746.71
350.26	1959.09
350.47	2059.23
350.68	1771.90
350.90	1708.42
351.11	2086.68
351.32	2050.84
351.53	1799.35
351.75	1705.14
351.96	1946.39
352.17	1912.19
352.38	1866.93
352.60	1860.99
352.81	1902.36
353.02	2092.41
353.23	1750.40
353.44	1785.42
353.66	1822.90
353.87	1854.64
354.08	1902.36
354.29	1821.05
354.51	1828.02
354.72	1852.39
354.93	1754.49
355.14	1682.41
355.35	1682.61
355.57	2003.53
355.78	1778.05
355.99	1839.49
356.20	1890.28
356.42	1878.81
356.63	1862.22
356.84	1792.79
357.05	1997.38
357.26	2179.86
357.48	1895.60
357.69	1833.96
357.90	1943.52
358.11	1844.61
358.32	1782.96
358.54	1858.33
358.75	1854.64
358.96	1964.21
359.17	1775.59
359.38	1791.77
359.60	1963.18
359.81	1887.61
360.02	1784.80
360.23	1766.17
360.44	1831.29
360.66	2036.09
360.87	1721.52
361.08	1729.71
361.29	1935.13
361.50	1927.55
361.72	1787.47
361.93	1828.84
362.14	1920.38
362.35	1705.75
362.56	1887.41
362.77	1715.99
362.99	1994.11
363.20	1901.13
363.41	1864.88
363.62	1717.84
363.83	1955.20
364.05	1997.18
364.26	1690.19
364.47	1746.92
364.68	2035.07
364.89	1813.27
365.10	1732.79
365.32	1795.86
365.53	1798.53
365.74	1831.70
365.95	1769.24
366.16	1687.73
366.37	1920.59
366.59	1850.75
366.80	1796.27
367.01	1641.04
367.22	2159.58
367.43	2259.52
367.64	1812.66
367.86	1793.00
368.07	1943.73
368.28	2051.04
368.49	1720.29
368.70	1818.19
368.91	1851.16
369.12	1897.44
369.34	1687.73
369.55	1744.66
369.76	1894.78
369.97	1857.92
370.18	1726.85
370.39	1723.57
370.60	1726.85
370.82	1797.71
371.03	1803.44
371.24	1747.12
371.45	2004.14
371.66	1964.00
371.87	1798.73
372.08	1777.02
372.30	1757.77
372.51	1992.06
372.72	1869.18
372.93	1772.93
373.14	2068.24
373.35	1816.14
373.56	1762.28
373.78	1800.57
373.99	2018.89
374.20	2255.84
374.41	1819.42
374.62	1814.30
374.83	2102.24
375.04	1851.77
375.25	1811.43
375.47	1757.98
375.68	1850.54
375.89	1987.76
376.10	1807.74
376.31	1891.09
376.52	1947.21
376.73	1933.28
376.94	1807.74
377.15	1769.04
377.37	1888.43
377.58	1857.71
377.79	1691.83
378.00	1712.10
378.21	1934.92
378.42	1974.86
378.63	1835.59
378.84	1877.37
379.05	2024.01
379.27	1929.19
379.48	1894.99
379.69	1742.21
379.90	2030.97
380.11	1661.31
380.32	1795.86
380.53	1895.19
380.74	2061.49
380.95	1917.10
381.16	1769.04
381.37	1783.99
381.59	2085.45
381.80	2024.21
382.01	1747.94
382.22	1668.28
382.43	1936.56
382.64	1881.88
382.85	1731.76
383.06	1833.96
383.27	1985.71
383.48	1863.45
383.69	1825.15
383.91	1731.35
384.12	1950.90
384.33	1962.57
384.54	1814.71
384.75	1690.60
384.96	2246.21
385.17	2009.06
385.38	1776.20
385.59	1757.36
385.80	2001.89
386.01	2070.29
386.22	1867.34
386.43	1806.51
386.64	2173.51
386.86	1880.44
387.07	1912.60
387.28	1710.87
387.49	1813.68
387.70	2056.78
387.91	1870.41
388.12	1731.35
388.33	1965.85
388.54	1843.17
388.75	1741.59
388.96	1836.00
389.17	1805.08
389.38	1847.68
389.59	1844.61
389.80	1789.72
390.01	1896.42
390.22	1865.90
390.43	1886.18
390.64	1683.64
390.86	1952.74
391.07	2020.32
391.28	1785.62
391.49	1832.93
391.70	1752.45
391.91	1817.98
392.12	1793.82
392.33	1767.19
392.54	1932.05
392.75	1875.32
392.96	1861.60
393.17	1724.59
393.38	2179.24
393.59	2032.40
393.80	1722.55
394.01	1773.75
394.22	1888.84
394.43	2147.70
394.64	1738.52
394.85	1902.56
395.06	1879.83
395.27	1930.21
395.48	1809.99
395.69	1725.00
395.90	1863.24
396.11	1894.17
396.32	1778.25
396.53	1899.49
396.74	1872.87
396.95	2030.36
397.16	1759.61
397.37	1684.66
397.58	2015.00
397.79	1936.56
398.00	1837.23
398.21	1792.59
398.42	1942.91
398.63	2175.76
398.84	1818.39
399.05	1778.46
399.26	2071.32
399.47	1967.89
399.68	1608.47
399.89	1733.20
400.10	1743.85
400.31	1855.05
400.52	1824.54
400.73	1775.79
400.94	1720.91
401.15	1923.45
401.36	1814.91
401.57	1843.17
401.78	2048.58
401.99	2019.71
402.20	1707.60
402.41	1909.53
402.62	2084.63
402.83	1852.39
403.04	1761.05
403.25	1906.25
403.46	1906.25
403.67	2049.40
403.88	1784.19
404.09	1772.72
404.30	1835.59
404.51	1820.44
404.72	1737.09
404.93	1882.08
405.14	1803.44
405.35	1879.83
405.56	1795.66
405.77	1753.88
405.98	1911.78
406.19	1875.73
406.40	1748.76
406.61	1773.75
406.82	1827.61
407.03	2175.56
407.24	1711.28
407.45	1819.21
407.66	1923.66
407.87	2037.11
408.08	1836.62
408.29	1873.89
408.49	1963.39
408.70	1896.21
408.91	1806.72
409.12	1870.21
409.33	1761.25
409.54	2073.98
409.75	1748.76
409.96	1774.16
410.17	2002.09
410.38	1861.81
410.59	1777.84
410.80	1896.62
411.01	1859.56
411.22	1879.42
411.43	1812.66
411.64	1762.07
411.85	1783.78
412.06	1805.28
412.27	1629.77
412.47	1755.52
412.68	1877.58
412.89	1966.46
413.10	1764.53
413.31	1700.02
413.52	2114.94
413.73	2147.30
413.94	1747.12
414.15	1905.63
414.36	1801.39
414.57	1792.18
414.78	1684.86
414.99	1747.12
415.19	1989.19
415.40	1947.82
415.61	2006.60
415.82	1836.82
416.03	2019.30
416.24	1970.15
416.45	1804.26
416.66	1765.96
416.87	1723.98
417.08	2000.25
417.29	1733.61
417.50	1843.17
417.70	1979.16
417.91	1970.56
418.12	1841.94
418.33	1810.61
418.54	1951.51
418.75	2063.33
418.96	1970.97
419.17	1898.88
419.38	2133.57
419.59	2054.52
419.79	1926.11
420.00	1885.97
420.21	2315.84
420.42	1953.76
420.63	1802.01
420.84	1867.54
421.05	1919.36
421.26	1898.47
421.47	1725.21
421.67	2035.48
421.88	1792.38
422.09	1744.25
422.30	1947.82
422.51	1809.79
422.72	2093.02
422.93	1954.79
423.14	1804.67
423.35	1698.59
423.55	1708.62
423.76	1790.74
423.97	1798.32
424.18	1684.04
424.39	1842.97
424.60	2002.71
424.81	1810.20
425.02	1888.84
425.22	1897.44
425.43	1886.79
425.64	1986.53
425.85	1852.39
426.06	2190.51
426.27	2015.41
426.48	1866.52
426.68	1877.78
426.89	1985.30
427.10	2132.35
427.31	1802.62
427.52	1746.10
427.73	1969.53
427.94	1939.43
428.14	1863.86
428.35	1795.04
428.56	2085.86
428.77	2006.39
428.98	1846.24
429.19	1809.18
429.40	1854.64
429.60	1860.17
429.81	1935.54
430.02	1835.39
430.23	1870.00
430.44	1999.84
430.65	1794.64
430.85	1831.91
431.06	1964.82
431.27	1701.04
431.48	1790.33
431.69	1832.93
431.90	1890.48
432.10	1897.65
432.31	1843.58
432.52	1700.22
432.73	2159.79
432.94	2062.51
433.15	1912.19
433.35	1817.57
433.56	2039.37
433.77	1900.92
433.98	1892.12
434.19	1786.24
434.40	1884.54
434.60	1867.95
434.81	1792.59
435.02	1848.50
435.23	1898.06
435.44	1823.51
435.64	1727.26
435.85	1760.84
436.06	1881.67
436.27	1828.43
436.48	1700.02
436.68	1751.01
436.89	2103.67
437.10	1960.32
437.31	1822.08
437.52	1876.55
437.73	1908.91
437.93	1897.03
438.14	1850.95
438.35	1666.84
438.56	1865.09
438.77	1864.27
438.97	1930.21
439.18	1745.69
439.39	2021.14
439.60	1741.18
439.80	1715.58
440.01	1814.91
440.22	1825.15
440.43	1950.28
440.64	1686.91
440.84	1827.81
441.05	1780.09
441.26	2242.53
441.47	1815.11
441.68	1749.99
441.88	1855.66
442.09	1836.00
442.30	1930.01
442.51	1853.62
442.71	1853.82
442.92	1907.89
443.13	1753.06
443.34	1735.04
443.55	1754.70
443.75	1968.10
443.96	1732.17
444.17	1747.74
444.38	2022.98
444.58	1767.81
444.79	1865.90
445.00	1825.15
445.21	1897.85
445.41	1877.17
445.62	1607.86
445.83	1867.54
446.04	1919.15
446.24	1744.46
446.45	1633.26
446.66	1798.12
446.87	1938.20
447.07	1813.48
447.28	1984.28
447.49	1840.51
447.70	2006.60
447.90	2006.80
448.11	1791.36
448.32	1891.09
448.53	2081.15
448.73	2070.91
448.94	1794.64
449.15	1923.25
449.36	1906.45
449.56	1944.75
449.77	1781.12
449.98	1699.61
450.19	1831.50
450.39	1849.32
450.60	1847.06
450.81	1851.36
451.02	1919.97
451.22	2093.23
451.43	1753.68
451.64	1770.67
451.84	1839.90
452.05	2030.15
452.26	1850.95
452.47	1805.69
452.67	1860.78
452.88	2050.22
453.09	1745.89
453.30	1708.42
453.50	1988.78
453.71	2090.36
453.92	1797.50
454.12	1891.71
454.33	1797.30
454.54	1855.46
454.75	1716.61
454.95	1712.72
455.16	1919.56
455.37	1986.32
455.57	1812.45
455.78	1772.31
455.99	1887.41
456.19	1905.02
456.40	1728.08
456.61	1812.86
456.82	1895.80
457.02	1950.69
457.23	1844.40
457.44	1973.22
457.64	1803.85
457.85	1932.26
458.06	1784.60
458.26	1804.67
458.47	1878.40
458.68	1992.26
458.89	1694.69
459.09	1922.02
459.30	2138.69
459.51	1884.13
459.71	1706.78
459.92	1801.39
460.13	1948.03
460.33	2139.31
460.54	1789.31
460.75	1814.91
460.95	1763.92
461.16	1939.63
461.37	1786.03
461.57	1819.42
461.78	1917.51
461.99	1764.12
462.19	2011.11
462.40	1790.95
462.61	2175.56
462.81	2035.68
463.02	1751.83
463.23	1788.90
463.43	1981.61
463.64	1840.30
463.85	2670.96
464.05	1754.70
464.26	2284.10
464.47	2056.16
464.67	1972.81
464.88	1839.28
465.09	1760.84
465.29	1894.17
465.50	1939.84
465.71	1788.29
465.91	1825.76
466.12	1894.99
466.33	1838.05
466.53	1804.06
466.74	2053.29
466.94	1878.40
467.15	1826.17
467.36	1982.43
467.56	1789.31
467.77	1931.85
467.98	1834.98
468.18	1761.05
468.39	1832.11
468.60	2164.09
468.80	1815.93
469.01	1737.09
469.21	1968.71
469.42	2005.99
469.63	1796.89
469.83	1748.35
470.04	1973.01
470.25	2080.53
470.45	1856.89
470.66	1776.41
470.86	1927.96
471.07	1841.12
471.28	1870.21
471.48	1907.68
471.69	1907.48
471.90	2358.65
472.10	1798.12
472.31	1806.72
472.51	1790.33
472.72	1797.71
472.93	1725.62
473.13	1915.06
473.34	1957.45
473.54	1894.99
473.75	1832.52
473.96	1982.02
474.16	1855.05
474.37	1930.82
474.57	1836.82
474.78	1736.68
474.99	1937.79
475.19	1945.37
475.40	1783.78
475.60	1734.22
475.81	2059.03
476.02	1846.24
476.22	1808.15
476.43	1921.61
476.63	1862.83
476.84	2005.78
477.05	1640.42
477.25	1778.05
477.46	2282.87
477.66	1895.40
477.87	1699.40
478.08	1801.80
478.28	2001.68
478.49	1856.28
478.69	1750.81
478.90	1800.37
479.10	1971.17
479.31	2089.75
479.52	1848.29
479.72	1923.86
479.93	1971.58
480.13	1838.26
480.34	1763.30
480.54	1858.74
480.75	1772.52
480.96	2035.27
481.16	1775.38
481.37	1894.17
481.57	2006.60
481.78	1975.88
481.98	1975.68
482.19	1841.53
482.40	2132.35
482.60	1984.07
482.81	1882.29
483.01	1802.01
483.22	1991.65
483.42	2014.18
483.63	1878.60
483.83	1870.00
484.04	1829.45
484.24	1979.57
484.45	1859.56
484.66	1710.87
484.86	1976.49
485.07	1793.20
485.27	1846.24
485.48	1782.55
485.68	2062.71
485.89	1801.60
486.09	1892.12
486.30	1794.23
486.50	1886.59
486.71	1889.87
486.91	1826.79
487.12	1867.75
487.33	2095.48
487.53	2076.03
487.74	1851.36
487.94	1816.14
488.15	1908.50
488.35	1958.68
488.56	1802.83
488.76	1800.16
488.97	1868.16
489.17	1945.37
489.38	1817.37
489.58	1791.36
489.79	1955.61
489.99	1940.25
490.20	1840.51
490.40	1902.56
490.61	1953.15
490.81	1821.46
491.02	1859.97
491.22	1905.84
491.43	1974.24
491.63	1865.09
491.84	1935.94
492.04	1722.14
492.25	1950.28
492.45	1857.51
492.66	1769.65
492.86	1694.69
493.07	1831.70
493.27	2149.55
493.48	1665.61
493.68	1840.10
493.89	1868.36
494.09	1991.24
494.30	1768.01
494.50	2044.49
494.71	1958.88
494.91	1713.54
495.12	1803.24
495.32	1894.78
495.53	1880.24
495.73	1694.49
495.94	1811.02
496.14	1684.25
496.35	2118.42
496.55	1847.06
496.76	1791.15
496.96	1847.68
497.17	1882.49
497.37	1952.94
497.58	1777.23
497.78	1717.84
497.98	1840.71
498.19	1847.68
498.39	1836.41
498.60	1876.14
498.80	1685.48
499.01	1990.01
499.21	1764.94
499.42	1826.58
499.62	1881.26
499.83	2149.96
500.03	1696.13
500.24	1873.69
500.44	2059.03
500.64	1995.13
500.85	1797.50
501.05	1925.71
501.26	1694.28
501.46	2070.29
501.67	1783.37
501.87	1718.45
502.08	1802.42
502.28	1861.40
502.48	1890.89
502.69	1941.88
502.89	1737.70
503.10	1789.92
503.30	1868.57
503.51	1846.45
503.71	1746.51
503.92	1964.41
504.12	1900.92
504.32	1814.30
504.53	1984.07
504.73	1970.35
504.94	1941.47
505.14	1974.65
505.35	1976.49
505.55	1933.08
505.75	1862.42
505.96	1937.79
506.16	2137.67
506.37	1831.50
506.57	1750.19
506.78	1889.66
506.98	1992.06
507.18	1721.32
507.39	1734.83
507.59	1809.59
507.80	1785.01
508.00	1868.36
508.20	1942.91
508.41	1829.25
508.61	2047.56
508.82	2005.17
509.02	1932.46
509.22	1751.83
509.43	1750.81
509.63	1786.03
509.84	1815.93
510.04	1730.74
510.24	2058.62
510.45	1970.76
510.65	1741.39
510.86	1849.32
511.06	1764.73
511.26	1996.56
511.47	1902.97
511.67	1763.10
511.88	1940.66
512.08	2011.31
512.28	1703.30
512.49	1892.32
512.69	1915.06
512.90	1896.42
513.10	1795.45
513.30	1838.05
513.51	1932.67
513.71	2078.89
513.91	1889.46
514.12	1846.65
514.32	1965.03
514.53	1803.24
514.73	1872.46
514.93	1811.02
515.14	1898.67
515.34	2067.42
515.54	1848.70
515.75	1888.02
515.95	1969.33
516.15	2045.92
516.36	1896.83
516.56	1914.65
516.77	1660.08
516.97	1957.65
517.17	1822.49
517.38	1918.54
517.58	2080.33
517.78	1855.87
517.99	1886.79
518.19	1874.10
518.39	2063.33
518.60	1839.90
518.80	1772.11
519.00	1947.82
519.21	1882.49
519.41	2142.18
519.61	1802.62
519.82	1902.36
520.02	1910.14
520.22	1895.40
520.43	1827.40
520.63	1836.41
520.83	1799.75
521.04	1713.33
521.24	1898.67
521.44	1825.56
521.65	1834.16
521.85	1990.42
522.05	1780.91
522.26	1818.80
522.46	2151.60
522.66	2001.68
522.87	1820.64
523.07	1997.79
523.27	1848.50
523.48	2079.51
523.68	1918.54
523.88	1863.45
524.09	2036.50
524.29	1946.18
524.49	1710.67
524.70	1952.33
524.90	2064.97
525.10	1964.62
525.31	1732.38
525.51	1741.59
525.71	2009.88
525.91	1949.05
526.12	1802.83
526.32	1723.16
526.52	1836.21
526.73	1819.01
526.93	1869.39
527.13	1729.10
527.34	1903.79
527.54	1861.19
527.74	1806.51
527.94	1741.80
528.15	1752.24
528.35	1910.75
528.55	1914.03
528.76	1896.62
528.96	1708.42
529.16	1985.71
529.36	1961.95
529.57	1750.60
529.77	2038.34
529.97	1774.56
530.18	1930.42
530.38	1833.34
530.58	1931.44
530.78	1934.31
530.99	1820.85
531.19	1944.34
531.39	1821.26
531.60	1898.67
531.80	1847.88
532.00	1965.23
532.20	1939.84
532.41	1794.64
532.61	1808.56
532.81	1805.90
533.01	1831.29
533.22	1934.31
533.42	1949.46
533.62	1665.00
533.82	2055.96
534.03	1852.59
534.23	1890.89
534.43	1766.17
534.63	1838.46
534.84	1920.99
535.04	1875.12
535.24	1876.55
535.44	2209.96
535.65	1824.13
535.85	1779.48
536.05	1775.18
536.25	1870.61
536.46	1779.89
536.66	2003.94
536.86	1890.48
537.06	1973.01
537.27	2064.35
537.47	1933.28
537.67	1835.39
537.87	2077.66
538.08	1866.11
538.28	1756.34
538.48	1740.36
538.68	1879.01
538.88	1961.95
539.09	1723.37
539.29	1823.92
539.49	1984.28
539.69	1951.30
539.90	1884.13
540.10	1778.87
540.30	2065.38
540.50	1824.33
540.70	1752.45
540.91	1863.45
541.11	2007.01
541.31	2104.29
541.51	1923.25
541.72	1906.86
541.92	1951.92
542.12	1797.50
542.32	1855.05
542.52	1804.26
542.73	1794.23
542.93	1960.11
543.13	1849.32
543.33	1930.62
543.53	1960.32
543.74	1935.94
543.94	1830.06
544.14	1926.32
544.34	2011.11
544.54	1893.76
544.75	1931.44
544.95	2054.73
545.15	1992.47
545.35	2112.89
545.55	1967.28
545.75	1844.20
545.96	2194.81
546.16	1822.08
546.36	1846.65
546.56	1845.22
546.76	2010.29
546.97	2102.85
547.17	1846.04
547.37	1924.68
547.57	1836.41
547.77	2000.87
547.97	1889.87
548.18	1913.83
548.38	1892.73
548.58	2066.61
548.78	1781.32
548.98	1930.62
549.18	2034.66
549.39	2150.57
549.59	1969.94
549.79	1907.07
549.99	2113.30
550.19	1991.85
550.39	1962.16
550.60	1874.51
550.80	1921.61
551.00	1980.59
551.20	1830.06
551.40	1821.67
551.60	1931.64
551.80	1925.30
552.01	1947.62
552.21	1864.27
552.41	1945.16
552.61	2116.37
552.81	1889.66
553.01	1790.33
553.21	1910.55
553.42	1766.58
553.62	1799.35
553.82	1806.31
554.02	2091.39
554.22	1985.71
554.42	1780.50
554.62	1901.74
554.83	2103.26
555.03	2079.30
555.23	1870.41
555.43	2109.20
555.63	1945.78
555.83	1962.77
556.03	1894.78
556.23	1762.07
556.44	1927.34
556.64	2068.86
556.84	1624.86
557.04	1837.03
557.24	1923.86
557.44	1907.27
557.64	1863.45
557.84	1780.50
558.04	1859.56
558.25	1995.34
558.45	1805.69
558.65	1883.11
558.85	1917.10
559.05	1677.29
559.25	1834.57
559.45	1918.54
559.65	2210.17
559.85	2554.23
560.05	1921.81
560.26	1949.26
560.46	1931.44
560.66	1866.93
560.86	1825.76
561.06	1813.48
561.26	2069.68
561.46	1975.88
561.66	1833.14
561.86	1947.21
562.06	1813.48
562.26	1909.32
562.47	1918.33
562.67	1794.84
562.87	1990.63
563.07	1739.54
563.27	1896.21
563.47	1908.71
563.67	1853.62
563.87	1990.83
564.07	1798.32
564.27	1844.61
564.47	1885.56
564.67	1926.11
564.87	1811.43
565.08	1932.87
565.28	1818.80
565.48	1955.20
565.68	1922.63
565.88	1916.69
566.08	2147.50
566.28	1883.72
566.48	1747.74
566.68	1825.76
566.88	1855.05
567.08	2008.65
567.28	1855.05
567.48	1859.35
567.68	1943.32
567.88	1721.73
568.08	1892.12
568.28	2010.08
568.48	1876.76
568.68	2037.93
568.89	1882.29
569.09	1728.69
569.29	2015.82
569.49	1999.43
569.69	1769.04
569.89	1774.36
570.09	1654.35
570.29	1812.86
570.49	1717.22
570.69	1788.29
570.89	1991.04
571.09	2169.62
571.29	1731.56
571.49	2026.87
571.69	1924.68
571.89	1947.00
572.09	1820.44
572.29	1831.09
572.49	1988.58
572.69	1954.38
572.89	1866.11
573.09	1613.59
573.29	1891.30
573.49	1917.31
573.69	1858.12
573.89	1967.69
574.09	1822.08
574.29	2078.07
574.49	1812.86
574.69	1819.62
574.89	1764.53
575.09	1781.53
575.29	1774.36
575.49	1875.32
575.69	1947.21
575.89	1764.73
576.09	1884.54
576.29	1886.18
576.49	1787.67
576.69	1882.08
576.89	1809.79
577.09	1861.81
577.29	1700.43
577.49	2112.89
577.69	1766.17
577.89	1936.35
578.09	1892.53
578.29	1714.76
578.49	1862.83
578.69	1779.68
578.89	2021.96
579.09	1879.42
579.29	1796.48
579.49	1972.40
579.69	1834.37
579.89	2109.61
580.09	1691.01
580.29	1714.56
580.49	1818.80
580.69	1750.60
580.89	1838.67
581.09	1834.78
581.29	1843.99
581.49	1872.05
581.69	1740.36
581.89	1790.54
582.09	1771.90
582.28	1788.70
582.48	1943.32
582.68	2010.08
582.88	2063.33
583.08	1844.40
583.28	1849.32
583.48	1867.95
583.68	1815.11
583.88	1901.74
584.08	1869.59
584.28	1886.18
584.48	2136.03
584.68	1958.27
584.88	1844.81
585.08	1991.85
585.28	2011.92
585.48	2039.37
585.68	1929.19
585.87	1940.04
586.07	1955.40
586.27	1888.43
586.47	1909.12
586.67	1868.98
586.87	1886.18
587.07	1832.73
587.27	1743.03
587.47	1873.28
587.67	2138.08
587.87	2250.31
588.07	1935.54
588.27	1851.77
588.46	2010.90
588.66	2021.55
588.86	1891.09
589.06	1958.47
589.26	2012.95
589.46	1995.95
589.66	1802.62
589.86	1750.40
590.06	1840.10
590.26	1974.65
590.46	1812.45
590.66	1962.16
590.85	1822.69
591.05	1947.21
591.25	1761.05
591.45	1873.69
591.65	1987.14
591.85	1883.93
592.05	1845.63
592.25	1936.35
592.45	2042.64
592.64	1866.93
592.84	1896.62
593.04	1790.54
593.24	2230.65
593.44	1859.15
593.64	1960.93
593.84	1956.83
594.04	1860.17
594.24	2076.44
594.43	1831.50
594.63	1861.40
