SpectraSuite Data File
++++++++++++++++++++++++++++++++++++
Date: Thu Mar 30 14:37:47 PDT 2017
User: UCSD _CER
Dark Spectrum Present: No
Reference Spectrum Present: No
Number of Sampled Component Spectra: 1
Spectrometers: USB4C00073
Integration Time (usec): 380000 (USB4C00073)
Spectra Averaged: 10 (USB4C00073)
Boxcar Smoothing: 0 (USB4C00073)
Correct for Electrical Dark: No (USB4C00073)
Strobe/Lamp Enabled: No (USB4C00073)
Correct for Detector Non-linearity: No (USB4C00073)
Correct for Stray Light: No (USB4C00073)
Number of Pixels in Processed Spectrum: 3648
>>>>>Begin Processed Spectral Data<<<<<
345.37	1253.36
345.58	1253.36
345.80	1253.36
346.01	1242.50
346.22	1258.27
346.43	2064.76
346.65	1926.52
346.86	2494.02
347.07	2432.58
347.28	1842.56
347.50	1843.17
347.71	2169.41
347.92	1911.57
348.13	1826.99
348.35	1822.08
348.56	2184.77
348.77	1958.47
348.98	1842.56
349.20	1714.35
349.41	2208.94
349.62	2321.99
349.83	1951.51
350.05	1843.99
350.26	2248.26
350.47	2403.70
350.68	1882.29
350.90	1780.09
351.11	2475.18
351.32	2417.01
351.53	1927.34
351.75	1817.98
351.96	2227.78
352.17	2172.28
352.38	1952.12
352.60	1959.91
352.81	2235.36
353.02	2533.95
353.23	1855.05
353.44	1890.28
353.66	2102.24
353.87	2134.19
354.08	1935.13
354.29	1866.31
354.51	2079.51
354.72	2164.50
354.93	1844.20
355.14	1846.24
355.35	1922.02
355.57	2334.68
355.78	1891.91
355.99	1960.11
356.20	2238.63
356.42	2152.82
356.63	1966.46
356.84	1886.79
357.05	2372.37
357.26	2635.53
357.48	2006.39
357.69	1960.52
357.90	2327.72
358.11	2131.12
358.32	1896.01
358.54	1939.02
358.75	2118.01
358.96	2310.93
359.17	1880.04
359.38	1930.01
359.60	2304.37
359.81	2138.08
360.02	1891.71
360.23	1829.66
360.44	2075.21
360.66	2365.81
360.87	1839.90
361.08	1825.15
361.29	2292.29
361.50	2214.26
361.72	1848.50
361.93	1965.85
362.14	2194.19
362.35	1910.96
362.56	2038.75
362.77	1759.00
362.99	2275.50
363.20	2182.11
363.41	1933.90
363.62	1742.21
363.83	2263.01
364.05	2315.64
364.26	1824.74
364.47	1844.20
364.68	2378.51
364.89	2047.76
365.10	1787.06
365.32	1900.31
365.53	2026.47
365.74	2099.78
365.95	1837.03
366.16	1750.19
366.37	2143.61
366.59	2109.61
366.80	1883.72
367.01	1774.36
367.22	2537.43
367.43	2656.22
367.64	1956.42
367.86	1879.01
368.07	2281.85
368.28	2411.48
368.49	1763.30
368.70	1908.91
368.91	2100.40
369.12	2160.81
369.34	1783.99
369.55	1748.15
369.76	2189.07
369.97	2096.10
370.18	1766.78
370.39	1854.03
370.60	1947.82
370.82	1999.84
371.03	1886.79
371.24	1825.56
371.45	2308.68
371.66	2289.83
371.87	1886.59
372.08	1878.19
372.30	2045.10
372.51	2354.14
372.72	2037.32
372.93	1875.73
373.14	2470.87
373.35	2069.27
373.56	1806.72
373.78	1880.65
373.99	2340.62
374.20	2724.82
374.41	1860.58
374.62	1851.57
374.83	2439.13
375.04	2090.36
375.25	1922.63
375.47	1897.24
375.68	2111.66
375.89	2340.01
376.10	1924.68
376.31	1961.54
376.52	2267.51
376.73	2251.54
376.94	1950.28
377.15	1825.15
377.37	2182.73
377.58	2158.15
377.79	1799.75
378.00	1848.29
378.21	2240.48
378.42	2306.01
378.63	1933.69
378.84	1975.27
379.05	2385.68
379.27	2226.55
379.48	1987.14
379.69	1881.67
379.90	2424.18
380.11	1875.53
380.32	1907.27
380.53	2030.77
380.74	2485.21
380.95	2227.37
381.16	1938.20
381.37	1938.40
381.59	2444.25
381.80	2342.06
382.01	1850.75
382.22	1812.86
382.43	2275.70
382.64	2181.09
382.85	1846.45
383.06	1964.41
383.27	2299.87
383.48	2178.42
383.69	1927.14
383.91	1858.74
384.12	2354.75
384.33	2359.67
384.54	1973.63
384.75	1880.24
384.96	2804.90
385.17	2445.48
385.38	1953.97
385.59	1899.70
385.80	2355.78
386.01	2504.46
386.22	2050.63
386.43	1933.69
386.64	2636.76
386.86	2206.28
387.07	2050.02
387.28	1839.28
387.49	2144.22
387.70	2462.68
387.91	2081.15
388.12	1937.17
388.33	2290.86
388.54	2149.14
388.75	1873.48
388.96	1975.88
389.17	2098.96
389.38	2167.77
389.59	1946.18
389.80	1978.34
390.01	2180.88
390.22	2136.44
390.43	2017.04
390.64	1790.33
390.86	2284.92
391.07	2407.80
391.28	1898.26
391.49	1954.17
391.70	1978.54
391.91	2065.17
392.12	1868.57
392.33	1985.51
392.54	2239.86
392.75	2180.27
392.96	1987.76
393.17	1878.19
393.38	2617.51
393.59	2413.94
393.80	1827.81
394.01	1952.33
394.22	2221.64
394.43	2578.80
394.64	1859.56
394.85	2018.68
395.06	2181.70
395.27	2243.14
395.48	1902.77
395.69	1780.71
395.90	2151.19
396.11	2188.25
396.32	1882.29
396.53	1980.59
396.74	2158.15
396.95	2393.46
397.16	1851.36
397.37	1795.86
397.58	2342.26
397.79	2185.18
398.00	1925.71
398.21	1910.75
398.42	2251.13
398.63	2562.42
398.84	1865.09
399.05	1848.29
399.26	2414.35
399.47	2238.63
399.68	1773.95
399.89	1825.56
400.10	1989.81
400.31	2130.71
400.52	1986.73
400.73	1918.54
400.94	2007.01
401.15	2325.47
401.36	1956.01
401.57	1989.60
401.78	2446.50
401.99	2381.58
402.20	1854.64
402.41	2050.63
402.62	2470.46
402.83	2194.40
403.04	1849.11
403.25	2102.65
403.46	2300.48
403.67	2507.33
403.88	1998.61
404.09	1953.15
404.30	2173.71
404.51	2132.35
404.72	1880.65
404.93	2101.01
405.14	2057.80
405.35	2194.60
405.56	1919.77
405.77	1843.38
405.98	2205.25
406.19	2167.16
406.40	1871.02
406.61	1936.56
406.82	2152.82
407.03	2710.08
407.24	1923.86
407.45	1983.05
407.66	2326.08
407.87	2426.23
408.08	1969.53
408.29	1987.76
408.49	2320.14
408.70	2163.27
408.91	1868.57
409.12	2046.13
409.33	2026.87
409.54	2456.33
409.75	1836.41
409.96	1949.26
410.17	2360.08
410.38	2181.09
410.59	1900.52
410.80	1998.82
411.01	2196.04
411.22	2155.90
411.43	1954.79
411.64	1875.94
411.85	2039.16
412.06	2035.89
412.27	1703.71
412.47	1870.00
412.68	2194.19
412.89	2261.57
413.10	1891.50
413.31	1822.08
413.52	2548.49
413.73	2545.01
413.94	1874.51
414.15	2057.80
414.36	2096.51
414.57	2020.94
414.78	1873.69
414.99	2075.00
415.19	2661.34
415.40	2717.04
415.61	2641.27
415.82	2488.28
416.03	2705.98
416.24	2574.09
416.45	2124.36
416.66	1904.82
416.87	2001.48
417.08	2300.89
417.29	1882.90
417.50	2019.09
417.70	2394.49
417.91	2346.15
418.12	2116.58
418.33	2116.17
418.54	2468.21
418.75	2669.73
418.96	2489.72
419.17	2693.90
419.38	3360.51
419.59	3305.22
419.79	2968.53
420.00	2775.00
420.21	3299.48
420.42	2573.27
420.63	2103.06
420.84	2063.33
421.05	2256.04
421.26	2243.96
421.47	1815.73
421.67	2278.16
421.88	2076.44
422.09	2035.07
422.30	2181.29
422.51	1980.39
422.72	2590.68
422.93	2371.14
423.14	1998.20
423.35	1841.12
423.55	1934.92
423.76	2067.01
423.97	1909.12
424.18	1801.60
424.39	2181.70
424.60	2389.16
424.81	1992.06
425.02	2211.81
425.22	2460.02
425.43	2476.81
425.64	2557.91
425.85	2516.75
426.06	3077.07
426.27	2826.20
426.48	2508.15
426.68	2497.50
426.89	2762.10
427.10	2845.45
427.31	2257.89
427.52	2033.02
427.73	2451.42
427.94	2375.03
428.14	2146.07
428.35	2017.86
428.56	2480.70
428.77	2401.86
428.98	1973.01
429.19	2063.53
429.40	2295.77
429.60	2356.60
429.81	2260.75
430.02	2184.98
430.23	2285.94
430.44	2398.79
430.65	1941.47
430.85	1954.99
431.06	2303.35
431.27	1933.69
431.48	1918.13
431.69	1942.91
431.90	2210.78
432.10	2248.46
432.31	2099.99
432.52	2160.81
432.73	2980.20
432.94	2908.93
433.15	2480.70
433.35	2264.64
433.56	2716.63
433.77	2517.36
433.98	2924.70
434.19	3163.50
434.40	3620.81
434.60	3583.13
434.81	3377.71
435.02	2818.00
435.23	2774.18
435.44	2573.89
435.64	2117.80
435.85	2001.68
436.06	2193.58
436.27	2200.13
436.48	1952.12
436.68	2068.24
436.89	2755.13
437.10	2572.45
437.31	2190.30
437.52	2279.59
437.73	2469.03
437.93	2398.58
438.14	2123.74
438.35	1885.36
438.56	2176.38
438.77	2179.24
438.97	2100.60
439.18	2062.51
439.39	2694.92
439.60	2333.25
439.80	2280.82
440.01	2281.03
440.22	2381.17
440.43	2457.77
440.64	2004.14
440.84	2063.74
441.05	2073.36
441.26	2711.51
441.47	2054.73
441.68	2092.82
441.88	2630.41
442.09	2749.19
442.30	2853.84
442.51	2910.78
442.71	2870.23
442.92	2794.25
443.13	2363.36
443.34	2169.82
443.55	2261.16
443.75	2428.28
443.96	1977.72
444.17	1845.63
444.38	2364.58
444.58	2019.09
444.79	2047.35
445.00	1971.99
445.21	2146.48
445.41	2148.11
445.62	1773.13
445.83	2029.95
446.04	2214.26
446.24	1996.77
446.45	1761.87
446.66	1951.92
446.87	2268.94
447.07	2129.89
447.28	2168.59
447.49	1987.35
447.70	2435.03
447.90	2432.17
448.11	2045.31
448.32	2071.11
448.53	2485.62
448.73	2475.99
448.94	1930.82
449.15	2099.37
449.36	2204.84
449.56	2255.43
449.77	1926.52
449.98	1836.62
450.19	2171.46
450.39	2245.80
450.60	2168.80
450.81	2173.10
451.02	2384.04
451.22	2568.36
451.43	2000.25
451.64	2006.80
451.84	2221.64
452.05	2473.54
452.26	2025.44
452.47	1979.98
452.67	2124.56
452.88	2451.01
453.09	1837.03
453.30	1873.48
453.50	2369.30
453.71	2574.71
453.92	2071.32
454.12	2274.47
454.33	2260.75
454.54	2325.88
454.75	2039.37
454.95	1971.78
455.16	2277.55
455.37	2288.61
455.57	2087.70
455.78	1983.46
455.99	2178.42
456.19	2237.82
456.40	1877.17
456.61	1963.80
456.82	2215.70
457.02	2403.50
457.23	2166.75
457.44	2326.70
457.64	2303.96
457.85	2499.34
458.06	2172.69
458.26	2256.45
458.47	2344.11
458.68	2555.05
458.89	2157.54
459.09	2258.50
459.30	2671.17
459.51	2297.62
459.71	1904.82
459.92	1975.88
460.13	2528.22
460.33	2868.79
460.54	2322.60
460.75	2294.75
460.95	2335.09
461.16	2449.99
461.37	2058.21
461.57	2048.17
461.78	2288.81
461.99	2053.50
462.19	2270.58
462.40	1926.32
462.61	2594.57
462.81	2418.24
463.02	1897.65
463.23	1979.98
463.43	2371.96
463.64	2107.97
463.85	3304.81
464.05	1929.80
464.26	2777.05
464.47	2465.14
464.67	2112.48
464.88	2139.31
465.09	2206.89
465.29	2421.72
465.50	2308.47
465.71	2221.84
465.91	2275.09
466.12	2283.08
466.33	2060.46
466.53	1926.73
466.74	2478.04
466.94	2189.28
467.15	2053.50
467.36	2159.58
467.56	2022.57
467.77	2247.24
467.98	2011.11
468.18	1956.42
468.39	2108.38
468.60	2550.34
468.80	1945.57
469.01	1883.72
469.21	2299.25
469.42	2456.13
469.63	2045.31
469.83	1944.96
470.04	2376.87
470.25	2517.36
470.45	2113.09
470.66	1936.35
470.86	2235.56
471.07	2163.88
471.28	2074.59
471.48	2049.61
471.69	2153.03
471.90	3025.05
472.10	2235.15
472.31	2191.33
472.51	2403.50
472.72	2495.86
472.93	2388.34
473.13	2532.11
473.34	2766.60
473.54	2650.69
473.75	2328.75
473.96	2327.52
474.16	2305.60
474.37	2404.72
474.57	2126.41
474.78	1987.14
474.99	2302.12
475.19	2253.38
475.40	2002.50
475.60	2018.27
475.81	2689.60
476.02	2448.96
476.22	2349.63
476.43	2387.73
476.63	2356.39
476.84	2508.97
477.05	1917.10
477.25	1975.27
477.46	2797.73
477.66	2267.72
477.87	1914.85
478.08	1967.07
478.28	2331.41
478.49	2152.21
478.69	1936.15
478.90	1953.76
479.10	2302.53
479.31	2516.13
479.52	2057.59
479.72	2476.81
479.93	3120.90
480.13	3091.41
480.34	3020.96
480.54	3100.62
480.75	2714.58
480.96	2786.47
481.16	2160.81
481.37	2263.82
481.57	2532.11
481.78	2485.82
481.98	2366.02
482.19	2253.38
482.40	2645.36
482.60	2358.24
482.81	2114.53
483.01	1885.56
483.22	2375.03
483.42	2347.59
483.63	2053.50
483.83	2063.74
484.04	2330.79
484.24	2612.80
484.45	2414.35
484.66	2192.56
484.86	2474.77
485.07	2186.00
485.27	2108.38
485.48	1990.63
485.68	2489.92
485.89	2125.38
486.09	2138.08
486.30	1982.43
486.50	2291.27
486.71	2250.72
486.91	2133.16
487.12	2576.14
487.33	3448.57
487.53	3667.50
487.74	3356.21
487.94	3238.66
488.15	2976.52
488.35	2735.68
488.56	2353.94
488.76	2211.19
488.97	2450.80
489.17	2498.11
489.38	2217.34
489.58	2135.01
489.79	2371.75
489.99	2361.92
490.20	2065.99
490.40	2138.69
490.61	2328.54
490.81	2134.60
491.02	2048.38
491.22	2062.30
491.43	2354.14
491.63	2205.66
491.84	2153.85
492.04	1892.73
492.25	2301.71
492.45	2223.27
492.66	2074.39
492.86	2042.23
493.07	2307.45
493.27	2732.60
493.48	1919.97
493.68	1979.77
493.89	2197.47
494.09	2348.82
494.30	2000.05
494.50	2238.02
494.71	2301.71
494.91	1994.72
495.12	1987.55
495.32	2033.02
495.53	2245.60
495.73	2058.82
495.94	2241.09
496.14	2082.37
496.35	2814.73
496.55	2395.30
496.76	2114.53
496.96	2138.69
497.17	2280.00
497.37	2325.47
497.58	1999.84
497.78	1911.16
497.98	2173.71
498.19	2136.03
498.39	2003.32
498.60	2052.06
498.80	1907.89
499.01	2330.38
499.21	1882.49
499.42	2046.33
499.62	2178.83
499.83	2602.76
500.03	1964.62
500.24	2285.12
500.44	2689.19
500.64	2679.97
500.85	2240.89
501.05	2321.58
501.26	2110.43
501.46	2537.43
501.67	2054.93
501.87	1960.73
502.08	2098.96
502.28	2203.61
502.48	2104.08
502.69	2131.94
502.89	1976.29
503.10	2091.18
503.30	2075.62
503.51	2061.08
503.71	2009.88
503.92	2321.99
504.12	2056.78
504.32	1953.15
504.53	2342.67
504.73	2321.37
504.94	2145.04
505.14	2277.34
505.35	2464.73
505.55	2483.78
505.75	2244.98
505.96	2401.24
506.16	2746.33
506.37	2280.82
506.57	2041.01
506.78	2171.67
506.98	2441.18
507.18	2034.66
507.39	1952.12
507.59	2049.81
507.80	2111.05
508.00	2237.41
508.20	2230.24
508.41	2044.49
508.61	2427.46
508.82	2379.94
509.02	2163.68
509.22	1961.75
509.43	2044.49
509.63	2092.20
509.84	2054.52
510.04	1857.30
510.24	2464.94
510.45	2351.89
510.65	1907.89
510.86	2042.64
511.06	2031.99
511.26	2346.36
511.47	2194.19
511.67	1942.09
511.88	2296.39
512.08	2375.85
512.28	1949.05
512.49	2068.45
512.69	2199.52
512.90	2243.55
513.10	1994.31
513.30	2082.99
513.51	2352.50
513.71	2588.22
513.91	2181.70
514.12	2214.67
514.32	2488.69
514.53	2214.88
514.73	2180.27
514.93	2038.14
515.14	2268.13
515.34	2462.89
515.54	2027.08
515.75	2141.36
515.95	2380.15
516.15	2551.15
516.36	2092.41
516.56	2095.69
516.77	1852.59
516.97	2302.94
517.17	2044.90
517.38	2123.54
517.58	2472.72
517.78	2153.64
517.99	2161.84
518.19	2052.47
518.39	2465.96
518.60	2183.95
518.80	1968.71
519.00	2075.21
519.21	2190.51
519.41	2536.61
519.61	1951.30
519.82	2111.05
520.02	2186.62
520.22	2201.36
520.43	1992.47
520.63	2081.97
520.83	2115.14
521.04	1919.56
521.24	2115.76
521.44	2029.13
521.65	2086.27
521.85	2318.30
522.05	1987.55
522.26	1992.88
522.46	2525.15
522.66	2349.02
522.87	2006.39
523.07	2219.79
523.27	2129.27
523.48	2413.33
523.68	2018.27
523.88	2096.10
524.09	2372.98
524.29	2269.76
524.49	1909.53
524.70	2089.13
524.90	2441.59
525.10	2297.82
525.31	1910.14
525.51	2004.14
525.71	2340.01
525.91	2278.57
526.12	1998.00
526.32	1929.39
526.52	2137.87
526.73	2088.11
526.93	2073.77
527.13	1890.89
527.34	2182.32
527.54	2187.23
527.74	2020.53
527.94	1916.08
528.15	2015.00
528.35	2215.90
528.55	2102.65
528.76	2065.58
528.96	1941.68
529.16	2374.82
529.36	2118.01
529.57	1942.70
529.77	2403.09
529.97	2030.15
530.18	2091.80
530.38	1986.32
530.58	2277.14
530.78	2198.70
530.99	1974.45
531.19	2066.61
531.39	2067.63
531.60	2216.93
531.80	2083.81
532.00	2169.82
532.20	2230.24
532.41	2080.74
532.61	1984.89
532.81	1974.45
533.01	2149.14
533.22	2291.68
533.42	2192.56
533.62	1898.88
533.82	2418.04
534.03	2161.22
534.23	2153.64
534.43	1974.86
534.63	2152.42
534.84	2240.68
535.04	2116.58
535.24	2083.81
535.44	2687.96
535.65	2148.93
535.85	2022.78
536.05	1947.62
536.25	2196.45
536.46	2067.63
536.66	2176.58
536.86	2084.01
537.06	2341.03
537.27	2430.53
537.47	2055.14
537.67	2034.86
537.87	2488.90
538.08	2186.41
538.28	1930.42
538.48	1906.25
538.68	2164.91
538.88	2308.06
539.09	1893.55
539.29	2042.85
539.49	2388.34
539.69	2256.66
539.90	2097.53
540.10	1917.51
540.30	2438.72
540.50	2102.44
540.70	1915.47
540.91	1958.88
541.11	2332.84
541.31	2523.30
541.51	2105.11
541.72	2137.87
541.92	2273.04
542.12	2107.36
542.32	2091.39
542.52	2027.08
542.73	2085.86
542.93	2303.35
543.13	1999.23
543.33	2174.33
543.53	2364.58
543.74	2323.63
543.94	2030.36
544.14	2140.33
544.34	2457.77
544.54	2255.43
544.75	2163.47
544.95	2273.04
545.15	2402.47
545.35	2556.68
545.55	2212.83
545.75	2092.00
545.96	2665.02
546.16	2130.09
546.36	2084.22
546.56	2087.49
546.76	2400.42
546.97	2518.39
547.17	2059.44
547.37	2131.73
547.57	2145.25
547.77	2314.61
547.97	2126.41
548.18	2103.26
548.38	2201.57
548.58	2485.62
548.78	2062.30
548.98	2101.63
549.18	2438.52
549.39	2577.57
549.59	2216.31
549.79	2135.42
549.99	2578.19
550.19	2388.34
550.39	2230.85
550.60	2096.92
550.80	2264.23
551.00	2316.87
551.20	2039.16
551.40	2044.08
551.60	2290.04
551.80	2273.86
552.01	2102.85
552.21	2071.93
552.41	2271.20
552.61	2547.06
552.81	2136.85
553.01	1949.26
553.21	2283.49
553.42	2041.82
553.62	2016.43
553.82	1954.38
554.02	2504.26
554.22	2345.54
554.42	1925.30
554.62	2160.61
554.83	2518.80
555.03	2545.01
555.23	2190.30
555.43	2436.26
555.63	2391.21
555.83	2369.50
556.03	2237.41
556.23	2024.62
556.44	2320.35
556.64	2491.35
556.84	1850.54
557.04	2107.97
557.24	2286.76
557.44	2226.96
557.64	2092.20
557.84	1977.31
558.04	2151.80
558.25	2335.91
558.45	1961.13
558.65	2072.75
558.85	2221.64
559.05	1913.42
559.25	2055.14
559.45	2115.96
559.65	2642.29
559.85	3154.08
560.05	2213.85
560.26	2321.17
560.46	2392.03
560.66	2220.61
560.86	2122.92
561.06	2030.36
561.26	2512.65
561.46	2350.04
561.66	2042.64
561.86	2195.01
562.06	2078.69
562.26	2180.68
562.47	2074.18
562.67	1947.00
562.87	2301.30
563.07	1971.99
563.27	2093.84
563.47	2087.90
563.67	2117.80
563.87	2312.36
564.07	2027.08
564.27	2054.52
564.47	2254.40
564.67	2367.25
564.87	2074.39
565.08	2146.68
565.28	2135.01
565.48	2333.87
565.68	2118.83
565.88	2193.58
566.08	2542.14
566.28	2253.58
566.48	1961.75
566.68	2080.94
566.88	2142.99
567.08	2375.44
567.28	2104.29
567.48	2065.79
567.68	2285.74
567.88	2011.11
568.08	2058.41
568.28	2182.32
568.48	2193.37
568.68	2407.18
568.89	2128.66
569.09	1921.40
569.29	2344.72
569.49	2349.84
569.69	1973.83
569.89	1967.28
570.09	1884.54
570.29	2085.24
570.49	1941.27
570.69	2046.74
570.89	2361.31
571.09	2550.75
571.29	1949.46
571.49	2200.54
571.69	2278.98
571.89	2293.52
572.09	2039.98
572.29	2118.83
572.49	2341.03
572.69	2311.13
572.89	2118.62
573.09	1819.21
573.29	2220.61
573.49	2256.86
573.69	2062.71
573.89	2120.67
574.09	2137.87
574.29	2453.06
574.49	2097.12
574.69	1976.90
574.89	2037.93
575.09	2049.61
575.29	1950.69
575.49	2058.21
575.69	2258.30
575.89	2007.01
576.09	2054.32
576.29	2082.78
576.49	2043.67
576.69	2193.99
576.89	2040.19
577.09	2106.34
577.29	1978.13
577.49	2563.44
577.69	2051.25
577.89	2178.01
578.09	2210.99
578.29	1938.81
578.49	2065.79
578.69	1985.92
578.89	2405.34
579.09	2224.30
579.29	1995.34
579.49	2200.34
579.69	2149.34
579.89	2531.29
580.09	1824.94
580.29	1912.39
580.49	2094.46
580.69	2038.34
580.89	1977.72
581.09	2032.81
581.29	2110.23
581.49	2171.87
581.69	1955.81
581.89	1989.60
582.09	2079.71
582.28	2060.67
582.48	2144.02
582.68	2185.18
582.88	2449.58
583.08	2174.33
583.28	2090.36
583.48	2073.77
583.68	2087.49
583.88	2204.64
584.08	2089.54
584.28	2122.51
584.48	2555.25
584.68	2290.65
584.88	2025.03
585.08	2292.09
585.28	2368.27
585.48	2461.45
585.68	2160.61
585.87	2220.61
586.07	2318.10
586.27	2249.90
586.47	2133.57
586.67	2056.57
586.87	2229.83
587.07	2142.79
587.27	2007.01
587.47	2177.61
587.67	2570.00
587.87	2804.69
588.07	2278.16
588.27	2144.02
588.46	2502.41
588.66	2490.94
588.86	2153.44
589.06	2206.48
589.26	2427.87
589.46	2391.41
589.66	2021.14
589.86	1975.88
590.06	2194.81
590.26	2358.44
590.46	2149.96
590.66	2263.01
590.85	2264.03
591.05	2404.52
591.25	2080.12
591.45	2167.77
591.65	2381.38
591.85	2314.82
592.05	2060.67
592.25	2195.01
592.45	2452.44
592.64	2222.25
592.84	2146.48
593.04	2046.74
593.24	2701.07
593.44	2160.40
593.64	2127.43
593.84	2143.81
594.04	2182.52
594.24	2528.22
594.43	2054.11
594.63	2065.99
