SpectraSuite Data File
++++++++++++++++++++++++++++++++++++
Date: Thu Mar 30 14:25:39 PDT 2017
User: UCSD _CER
Dark Spectrum Present: No
Reference Spectrum Present: No
Number of Sampled Component Spectra: 1
Spectrometers: USB4C00073
Integration Time (usec): 380000 (USB4C00073)
Spectra Averaged: 10 (USB4C00073)
Boxcar Smoothing: 0 (USB4C00073)
Correct for Electrical Dark: No (USB4C00073)
Strobe/Lamp Enabled: No (USB4C00073)
Correct for Detector Non-linearity: No (USB4C00073)
Correct for Stray Light: No (USB4C00073)
Number of Pixels in Processed Spectrum: 3648
>>>>>Begin Processed Spectral Data<<<<<
345.37	1247.21
345.58	1247.21
345.80	1247.21
346.01	1227.55
346.22	1264.42
346.43	2039.57
346.65	1879.83
346.86	2429.71
347.07	2360.28
347.28	1837.03
347.50	1814.30
347.71	2135.62
347.92	1873.48
348.13	1824.54
348.35	1814.09
348.56	2138.69
348.77	1927.14
348.98	1812.86
349.20	1683.43
349.41	2139.31
349.62	2304.17
349.83	1912.60
350.05	1814.09
350.26	2192.15
350.47	2349.02
350.68	1831.50
350.90	1723.57
351.11	2374.21
351.32	2337.96
351.53	1875.94
351.75	1769.45
351.96	2179.86
352.17	2102.85
352.38	1892.53
352.60	1902.36
352.81	2139.31
353.02	2447.12
353.23	1823.10
353.44	1830.47
353.66	2043.05
353.87	2073.57
354.08	1904.20
354.29	1835.59
354.51	2063.33
354.72	2110.64
354.93	1854.44
355.14	1877.78
355.35	1927.75
355.57	2337.55
355.78	1903.38
355.99	1974.86
356.20	2175.76
356.42	2165.52
356.63	1969.53
356.84	1860.58
357.05	2290.86
357.26	2541.73
357.48	1951.10
357.69	1885.36
357.90	2199.31
358.11	2068.45
358.32	1826.79
358.54	1862.42
358.75	2059.64
358.96	2208.32
359.17	1807.33
359.38	1869.59
359.60	2265.46
359.81	2112.27
360.02	1881.06
360.23	1782.55
360.44	2044.08
360.66	2326.29
360.87	1813.89
361.08	1809.59
361.29	2196.45
361.50	2138.08
361.72	1805.69
361.93	1898.67
362.14	2144.22
362.35	1884.34
362.56	2008.65
362.77	1749.99
362.99	2257.27
363.20	2176.79
363.41	1944.14
363.62	1742.00
363.83	2235.77
364.05	2303.76
364.26	1793.00
364.47	1835.80
364.68	2329.15
364.89	1999.23
365.10	1755.31
365.32	1867.13
365.53	1994.93
365.74	2047.15
365.95	1833.14
366.16	1728.28
366.37	2092.20
366.59	2060.05
366.80	1864.47
367.01	1716.20
367.22	2501.39
367.43	2656.22
367.64	1932.67
367.86	1861.81
368.07	2231.47
368.28	2317.48
368.49	1760.64
368.70	1874.71
368.91	2066.81
369.12	2119.44
369.34	1760.02
369.55	1724.59
369.76	2144.22
369.97	2048.58
370.18	1730.94
370.39	1796.07
370.60	1888.64
370.82	1926.73
371.03	1841.33
371.24	1791.15
371.45	2260.34
371.66	2220.61
371.87	1819.83
372.08	1832.32
372.30	1941.68
372.51	2238.23
372.72	1925.30
372.93	1801.19
373.14	2397.76
373.35	1995.34
373.56	1771.08
373.78	1845.22
373.99	2308.06
374.20	2638.19
374.41	1781.32
374.62	1799.14
374.83	2385.27
375.04	2032.81
375.25	1884.34
375.47	1864.88
375.68	2022.78
375.89	2258.91
376.10	1884.13
376.31	1915.87
376.52	2187.23
376.73	2186.82
376.94	1904.00
377.15	1794.23
377.37	2107.56
377.58	2082.99
377.79	1723.98
378.00	1762.89
378.21	2190.30
378.42	2226.35
378.63	1905.02
378.84	1919.15
379.05	2286.56
379.27	2116.58
379.48	1918.54
379.69	1805.49
379.90	2345.33
380.11	1797.91
380.32	1819.42
380.53	1966.25
380.74	2353.12
380.95	2141.15
381.16	1895.60
381.37	1874.10
381.59	2352.50
381.80	2291.06
382.01	1818.19
382.22	1736.88
382.43	2209.55
382.64	2132.55
382.85	1802.42
383.06	1943.93
383.27	2281.44
383.48	2097.53
383.69	1891.30
383.91	1782.55
384.12	2212.63
384.33	2177.20
384.54	1837.03
384.75	1726.03
384.96	2614.03
385.17	2278.16
385.38	1838.67
385.59	1785.42
385.80	2275.29
386.01	2362.33
386.22	1932.87
386.43	1836.00
386.64	2514.29
386.86	2090.57
387.07	1957.86
387.28	1754.09
387.49	2027.28
387.70	2327.72
387.91	1925.09
388.12	1857.30
388.33	2180.47
388.54	2024.21
388.75	1768.63
388.96	1945.98
389.17	2022.98
389.38	2093.43
389.59	1917.31
389.80	1945.37
390.01	2122.92
390.22	2041.21
390.43	1928.98
390.64	1733.61
390.86	2193.58
391.07	2284.10
391.28	1787.88
391.49	1890.68
391.70	1881.67
391.91	1982.23
392.12	1811.02
392.33	1887.41
392.54	2116.37
392.75	2060.05
392.96	1942.50
393.17	1814.71
393.38	2528.63
393.59	2314.82
393.80	1795.25
394.01	2018.89
394.22	2256.04
394.43	2653.14
394.64	1981.00
394.85	2136.85
395.06	2241.50
395.27	2263.01
395.48	1902.15
395.69	1761.46
395.90	2099.37
396.11	2118.62
396.32	1837.03
396.53	1946.59
396.74	2074.39
396.95	2279.80
397.16	1816.34
397.37	1716.20
397.58	2280.21
397.79	2120.47
398.00	1869.59
398.21	1827.61
398.42	2141.97
398.63	2476.20
398.84	1840.10
399.05	1819.62
399.26	2329.56
399.47	2204.43
399.68	1712.72
399.89	1755.31
400.10	1950.08
400.31	2025.65
400.52	1894.37
400.73	1808.36
400.94	1858.53
401.15	2170.85
401.36	1818.19
401.57	1867.34
401.78	2308.47
401.99	2285.53
402.20	1759.21
402.41	1979.16
402.62	2353.32
402.83	2088.52
403.04	1797.09
403.25	2044.08
403.46	2253.18
403.67	2496.06
403.88	2118.01
404.09	2105.52
404.30	2305.60
404.51	2240.48
404.72	1986.73
404.93	2083.40
405.14	2050.63
405.35	2130.30
405.56	1892.53
405.77	1797.50
405.98	2151.19
406.19	2095.48
406.40	1782.76
406.61	1812.66
406.82	1988.78
407.03	2495.65
407.24	1735.86
407.45	1868.36
407.66	2170.23
407.87	2286.15
408.08	1898.47
408.29	1905.63
408.49	2221.23
408.70	2125.38
408.91	1812.04
409.12	1964.82
409.33	1950.08
409.54	2327.31
409.75	1787.47
409.96	1842.76
410.17	2284.71
410.38	2096.92
410.59	1799.96
410.80	1969.74
411.01	2093.64
411.22	2075.62
411.43	1928.16
411.64	1808.77
411.85	1969.94
412.06	1948.44
412.27	1664.79
412.47	1803.85
412.68	2111.66
412.89	2188.46
413.10	1837.85
413.31	1756.13
413.52	2418.86
413.73	2453.47
413.94	1819.83
414.15	2009.47
414.36	2009.06
414.57	2009.47
414.78	1976.70
414.99	2647.00
415.19	3522.71
415.40	3819.26
415.61	3913.87
415.82	3764.58
416.03	3548.93
416.24	3111.27
416.45	2588.63
416.66	2127.02
416.87	2051.45
417.08	2311.54
417.29	1913.83
417.50	2113.91
417.70	2494.43
417.91	2534.16
418.12	2388.96
418.33	2500.98
418.54	2920.81
418.75	3146.29
418.96	3133.60
419.17	3739.18
419.38	4713.20
419.59	4761.73
419.79	4477.06
420.00	4203.66
420.21	4153.90
420.42	3148.96
420.63	2497.91
420.84	2249.69
421.05	2203.00
421.26	2156.31
421.47	1777.02
421.67	2213.44
421.88	1989.60
422.09	1909.73
422.30	2029.54
422.51	1815.93
422.72	2416.19
422.93	2240.48
423.14	1898.26
423.35	1736.06
423.55	1873.07
423.76	1976.49
423.97	1858.74
424.18	1753.47
424.39	2147.30
424.60	2380.97
424.81	2025.65
425.02	2299.25
425.22	2618.74
425.43	2670.55
425.64	2795.48
425.85	2852.41
426.06	3372.59
426.27	3200.36
426.48	3137.08
426.68	3097.76
426.89	3344.33
427.10	3367.88
427.31	2562.42
427.52	2192.15
427.73	2466.78
427.94	2354.14
428.14	2071.11
428.35	1901.74
428.56	2386.09
428.77	2277.75
428.98	1969.33
429.19	2280.00
429.40	2593.96
429.60	2735.06
429.81	2655.19
430.02	2564.47
430.23	2464.73
430.44	2481.11
430.65	1990.22
430.85	1965.03
431.06	2244.16
431.27	1880.65
431.48	1857.92
431.69	1898.47
431.90	2134.39
432.10	2135.21
432.31	1940.45
432.52	2179.86
432.73	3179.47
432.94	3189.10
433.15	2851.18
433.35	2716.43
433.56	2955.42
433.77	2613.00
433.98	2435.03
434.19	2247.24
434.40	2421.72
434.60	2277.34
434.81	1999.64
435.02	1987.96
435.23	2174.53
435.44	2091.18
435.64	1769.24
435.85	1773.34
436.06	2102.85
436.27	2046.33
436.48	1774.97
436.68	1796.89
436.89	2378.72
437.10	2269.15
437.31	1884.34
437.52	2006.60
437.73	2164.29
437.93	2138.69
438.14	1944.34
438.35	1730.33
438.56	2036.70
438.77	2091.59
438.97	2038.96
439.18	1824.33
439.39	2282.87
439.60	1900.72
439.80	1802.01
440.01	1820.44
440.22	2004.76
440.43	2235.77
440.64	1785.83
440.84	1892.73
441.05	1929.80
441.26	2610.96
441.47	1942.09
441.68	1854.44
441.88	2077.66
442.09	2036.50
442.30	1973.83
442.51	1963.39
442.71	2064.56
442.92	2198.49
443.13	1876.96
443.34	1834.37
443.55	1950.28
443.75	2235.77
443.96	1849.32
444.17	1805.69
444.38	2321.17
444.58	1978.54
444.79	1966.05
445.00	1931.44
445.21	2109.41
445.41	2053.91
445.62	1704.73
445.83	1993.29
446.04	2144.22
446.24	1897.85
446.45	1718.25
446.66	1884.75
446.87	2183.13
447.07	2032.20
447.28	2091.80
447.49	1856.69
447.70	2270.17
447.90	2288.81
448.11	1911.16
448.32	1968.10
448.53	2347.79
448.73	2361.10
448.94	1859.56
449.15	2018.27
449.36	2136.85
449.56	2210.37
449.77	1858.12
449.98	1805.69
450.19	2175.76
450.39	2328.54
450.60	2264.23
450.81	2274.47
451.02	2432.99
451.22	2576.75
451.43	2027.69
451.64	2079.30
451.84	2241.50
452.05	2529.24
452.26	2055.96
452.47	2001.28
452.67	2076.03
452.88	2397.35
453.09	1835.59
453.30	1830.27
453.50	2275.91
453.71	2388.96
453.92	1866.72
454.12	1995.75
454.33	1998.20
454.54	2095.28
454.75	1818.80
454.95	1846.04
455.16	2150.98
455.37	2232.90
455.57	1959.29
455.78	1896.42
455.99	2100.81
456.19	2131.32
456.40	1841.53
456.61	1908.50
456.82	2100.19
457.02	2260.34
457.23	1923.25
457.44	2050.84
457.64	2034.45
457.85	2213.04
458.06	1970.35
458.26	2096.51
458.47	2165.32
458.68	2336.53
458.89	1965.64
459.09	2144.63
459.30	2608.50
459.51	2268.33
459.71	1848.91
459.92	1888.64
460.13	2279.18
460.33	2555.87
460.54	1955.40
460.75	1930.01
460.95	1942.09
461.16	2181.29
461.37	1922.22
461.57	1923.66
461.78	2171.05
461.99	1989.19
462.19	2237.00
462.40	1934.51
462.61	2831.32
462.81	2415.99
463.02	1913.83
463.23	1912.39
463.43	2288.20
463.64	2099.99
463.85	3221.25
464.05	1994.93
464.26	2747.96
464.47	2443.43
464.67	2145.86
464.88	2028.92
465.09	1982.64
465.29	2163.06
465.50	2028.31
465.71	1920.18
465.91	2032.40
466.12	2114.73
466.33	1954.58
466.53	1854.64
466.74	2361.10
466.94	2077.05
467.15	1955.81
467.36	2100.40
467.56	1981.82
467.77	2183.75
467.98	1937.38
468.18	1924.07
468.39	2061.69
468.60	2462.27
468.80	1911.78
469.01	1844.61
469.21	2225.53
469.42	2475.18
469.63	2086.06
469.83	2049.61
470.04	2451.01
470.25	2565.90
470.45	2140.13
470.66	1976.70
470.86	2251.74
471.07	2138.69
471.28	2050.22
471.48	2053.70
471.69	2193.58
471.90	2766.81
472.10	1912.19
472.31	1867.34
472.51	2008.24
472.72	2006.39
472.93	1852.39
473.13	2021.35
473.34	2191.33
473.54	2126.00
473.75	1953.97
473.96	2116.17
474.16	2164.09
474.37	2304.99
474.57	2148.73
474.78	2008.03
474.99	2294.75
475.19	2288.20
475.40	1990.01
475.60	1873.89
475.81	2412.51
476.02	2183.34
476.22	2119.24
476.43	2197.47
476.63	2221.23
476.84	2521.25
477.05	1893.14
477.25	1915.67
477.46	2707.21
477.66	2153.85
477.87	1879.22
478.08	1906.04
478.28	2297.62
478.49	2118.21
478.69	1894.99
478.90	1926.93
479.10	2269.56
479.31	2443.84
479.52	2020.53
479.72	2060.46
479.93	2271.81
480.13	2064.56
480.34	1879.63
480.54	1971.99
480.75	2012.54
480.96	2335.71
481.16	1872.87
481.37	2005.17
481.57	2282.26
481.78	2234.13
481.98	2142.58
482.19	2036.70
482.40	2500.37
482.60	2282.67
482.81	2147.50
483.01	1962.36
483.22	2425.61
483.42	2407.80
483.63	2137.67
483.83	2016.84
484.04	2093.23
484.24	2280.82
484.45	2057.18
484.66	1851.77
484.86	2223.68
485.07	1989.60
485.27	2015.41
485.48	1916.28
485.68	2389.98
485.89	2050.63
486.09	2074.39
486.30	1898.88
486.50	2173.92
486.71	2245.80
486.91	2223.27
487.12	2306.83
487.33	2739.16
487.53	2752.67
487.74	2253.79
487.94	2273.86
488.15	2546.65
488.35	2633.28
488.56	2407.80
488.76	2311.95
488.97	2454.49
489.17	2492.58
489.38	2210.78
489.58	2059.44
489.79	2299.05
489.99	2273.65
490.20	2018.89
490.40	2116.37
490.61	2278.57
490.81	2105.11
491.02	2027.49
491.22	2022.98
491.43	2325.67
491.63	2186.62
491.84	2147.30
492.04	1901.74
492.25	2265.46
492.45	2122.31
492.66	1928.78
492.86	1857.30
493.07	2122.11
493.27	2520.23
493.48	1856.28
493.68	1958.27
493.89	2141.77
494.09	2283.08
494.30	1960.73
494.50	2232.70
494.71	2300.89
494.91	2052.68
495.12	2151.19
495.32	2242.53
495.53	2322.60
495.73	1978.54
495.94	2072.54
496.14	1824.33
496.35	2498.32
496.55	2110.84
496.76	1950.28
496.96	2016.84
497.17	2170.64
497.37	2266.49
497.58	1985.92
497.78	1898.67
497.98	2150.98
498.19	2169.41
498.39	2014.38
498.60	2095.28
498.80	1964.82
499.01	2355.57
499.21	1902.36
499.42	2057.39
499.62	2114.32
499.83	2539.28
500.03	1874.92
500.24	2053.70
500.44	2413.94
500.64	2345.13
500.85	1961.34
501.05	2061.89
501.26	1895.60
501.46	2394.89
501.67	1913.62
501.87	1859.97
502.08	2004.55
502.28	2112.07
502.48	2065.58
502.69	2153.44
502.89	2024.83
503.10	2130.50
503.30	2129.07
503.51	2070.09
503.71	1971.99
503.92	2335.09
504.12	2164.91
504.32	2115.35
504.53	2505.28
504.73	2543.37
504.94	2388.75
505.14	2552.59
505.35	2680.59
505.55	2702.70
505.75	2468.62
505.96	2579.21
506.16	2800.39
506.37	2327.52
506.57	2147.09
506.78	2274.27
506.98	2533.13
507.18	2113.71
507.39	2003.73
507.59	2079.92
507.80	2182.93
508.00	2310.52
508.20	2309.49
508.41	2086.88
508.61	2502.21
508.82	2401.24
509.02	2167.98
509.22	1938.20
509.43	1996.77
509.63	2077.87
509.84	1989.40
510.04	1839.69
510.24	2430.53
510.45	2290.45
510.65	1886.59
510.86	2054.52
511.06	2032.20
511.26	2389.16
511.47	2273.86
511.67	2025.24
511.88	2310.11
512.08	2384.86
512.28	1934.10
512.49	2077.46
512.69	2208.32
512.90	2248.46
513.10	1991.24
513.30	2054.52
513.51	2267.51
513.71	2430.73
513.91	2040.39
514.12	2065.58
514.32	2471.28
514.53	2304.37
514.73	2391.41
514.93	2355.78
515.14	2528.22
515.34	2914.46
515.54	2643.93
515.75	2865.72
515.95	3145.68
516.15	3225.14
516.36	2554.43
516.56	2413.53
516.77	2093.64
516.97	2488.90
517.17	2233.92
517.38	2295.36
517.58	2629.18
517.78	2553.82
517.99	2761.48
518.19	2852.41
518.39	3376.90
518.60	3131.96
518.80	2747.15
519.00	2619.15
519.21	2530.47
519.41	2746.12
519.61	2115.96
519.82	2227.37
520.02	2319.73
520.22	2302.74
520.43	2139.10
520.63	2238.23
520.83	2222.66
521.04	2148.73
521.24	2586.17
521.44	2729.74
521.65	2928.39
521.85	3234.36
522.05	2838.89
522.26	2526.58
522.46	2898.90
522.66	2568.97
522.87	2220.20
523.07	2392.85
523.27	2256.04
523.48	2567.95
523.68	2206.48
523.88	2265.67
524.09	2564.06
524.29	2441.38
524.49	2239.66
524.70	2566.51
524.90	2961.16
525.10	2795.68
525.31	2349.63
525.51	2198.08
525.71	2495.45
525.91	2372.98
526.12	2059.03
526.32	1941.88
526.52	2117.80
526.73	2078.48
526.93	2065.79
527.13	1918.54
527.34	2178.01
527.54	2245.60
527.74	2113.91
527.94	1995.54
528.15	2082.37
528.35	2265.46
528.55	2189.69
528.76	2092.41
528.96	1924.07
529.16	2358.03
529.36	2106.75
529.57	1921.81
529.77	2373.80
529.97	1995.34
530.18	2084.42
530.38	1980.59
530.58	2263.42
530.78	2197.27
530.99	2013.77
531.19	2105.93
531.39	2121.70
531.60	2213.85
531.80	2059.03
532.00	2203.82
532.20	2217.95
532.41	2087.29
532.61	1987.35
532.81	1936.56
533.01	2106.75
533.22	2244.98
533.42	2119.65
533.62	1833.75
533.82	2384.86
534.03	2153.03
534.23	2136.03
534.43	1973.42
534.63	2106.95
534.84	2218.36
535.04	2085.86
535.24	2027.28
535.44	2621.60
535.65	2063.74
535.85	1960.52
536.05	1910.96
536.25	2138.90
536.46	2073.98
536.66	2235.15
536.86	2169.82
537.06	2404.32
537.27	2516.54
537.47	2104.90
537.67	2025.65
537.87	2440.15
538.08	2176.99
538.28	1976.09
538.48	1992.88
538.68	2253.38
538.88	2386.70
539.09	1956.22
539.29	2074.80
539.49	2356.60
539.69	2245.60
539.90	2117.80
540.10	1969.74
540.30	2502.62
540.50	2204.23
540.70	2055.96
540.91	2107.56
541.11	2522.28
541.31	2787.49
541.51	2448.55
541.72	2561.80
541.92	2721.34
542.12	2455.31
542.32	2305.19
542.52	2171.87
542.73	2181.09
542.93	2361.10
543.13	2126.61
543.33	2329.15
543.53	2593.14
543.74	2642.29
543.94	2369.70
544.14	2593.75
544.34	2940.88
544.54	2843.20
544.75	2897.26
544.95	3087.72
545.15	3047.17
545.35	3072.98
545.55	2646.59
545.75	2447.94
545.96	2858.55
546.16	2227.78
546.36	2264.23
546.56	2286.76
546.76	2550.95
546.97	2640.86
547.17	2176.79
547.37	2219.79
547.57	2158.35
547.77	2310.93
547.97	2115.14
548.18	2164.50
548.38	2317.48
548.58	3205.28
548.78	3346.79
548.98	3897.69
549.18	4546.49
549.39	4783.85
549.59	4066.65
549.79	3634.33
549.99	3707.44
550.19	3415.19
550.39	3120.29
550.60	2738.75
550.80	2767.83
551.00	2702.70
551.20	2332.43
551.40	2220.20
551.60	2440.77
551.80	2387.32
552.01	2261.98
552.21	2239.45
552.41	2417.63
552.61	2640.24
552.81	2245.60
553.01	2059.44
553.21	2341.03
553.42	2101.22
553.62	2066.61
553.82	2005.58
554.02	2471.69
554.22	2326.49
554.42	1936.76
554.62	2192.96
554.83	2859.99
555.03	3357.64
555.23	3298.46
555.43	3840.76
555.63	4009.51
555.83	3716.24
556.03	3199.54
556.23	2919.79
556.44	3134.83
556.64	3228.21
556.84	2667.27
557.04	2892.76
557.24	2944.57
557.44	2724.41
557.64	2498.73
557.84	2245.39
558.04	2335.30
558.25	2506.92
558.45	2119.65
558.65	2234.13
558.85	2418.24
559.05	2157.94
559.25	2332.23
559.45	2505.89
559.65	3258.11
559.85	3993.13
560.05	3236.00
560.26	3439.36
560.46	3559.37
560.66	3172.10
560.86	2840.74
561.06	2600.10
561.26	2951.33
561.46	2690.21
561.66	2382.61
561.86	2453.26
562.06	2311.75
562.26	2350.25
562.47	2224.30
562.67	2030.77
562.87	2381.17
563.07	2047.97
563.27	2227.99
563.47	2232.08
563.67	2252.36
563.87	2494.84
564.07	2361.92
564.27	2495.04
564.47	2771.11
564.67	2897.88
564.87	2723.59
565.08	2683.04
565.28	2570.00
565.48	2689.19
565.68	2439.54
565.88	2405.13
566.08	2702.29
566.28	2315.23
566.48	2032.81
566.68	2090.57
566.88	2140.33
567.08	2381.38
567.28	2165.73
567.48	2160.40
567.68	2438.72
567.88	2204.23
568.08	2364.58
568.28	2451.62
568.48	2440.77
568.68	2636.55
568.89	2298.03
569.09	2053.50
569.29	2411.48
569.49	2431.14
569.69	2045.51
569.89	2011.51
570.09	1894.58
570.29	2085.86
570.49	1940.66
570.69	2003.73
570.89	2316.87
571.09	2517.16
571.29	1897.44
571.49	2174.53
571.69	2219.79
571.89	2226.14
572.09	1994.72
572.29	2034.86
572.49	2267.31
572.69	2229.62
572.89	2171.26
573.09	1987.35
573.29	2439.95
573.49	2546.65
573.69	2421.93
573.89	2413.33
574.09	2316.46
574.29	2529.04
574.49	2156.31
574.69	2030.77
574.89	2029.13
575.09	2026.47
575.29	1918.74
575.49	2040.60
575.69	2234.33
575.89	1961.54
576.09	2019.50
576.29	2113.50
576.49	2098.35
576.69	2247.44
576.89	2159.99
577.09	2217.54
577.29	2040.80
577.49	2582.08
577.69	2087.90
577.89	2229.01
578.09	2238.02
578.29	1953.35
578.49	2101.83
578.69	1983.46
578.89	2359.87
579.09	2197.47
579.29	1993.08
579.49	2235.77
579.69	2211.81
579.89	2586.38
580.09	1903.59
580.29	1909.94
580.49	2109.00
580.69	2023.60
580.89	1987.76
581.09	1972.81
581.29	2052.06
581.49	2124.56
581.69	1919.56
581.89	1936.15
582.09	1987.14
582.28	2028.72
582.48	2223.68
582.68	2314.82
582.88	2636.96
583.08	2369.30
583.28	2306.42
583.48	2205.66
583.68	2167.98
583.88	2252.77
584.08	2132.75
584.28	2127.84
584.48	2503.64
584.68	2251.13
584.88	2033.02
585.08	2278.77
585.28	2396.12
585.48	2464.53
585.68	2186.21
585.87	2264.23
586.07	2322.19
586.27	2207.51
586.47	2160.40
586.67	2046.33
586.87	2186.21
587.07	2108.38
587.27	2038.55
587.47	2254.40
587.67	2765.37
587.87	3386.73
588.07	3083.22
588.27	3136.26
588.46	3600.12
588.66	3623.47
588.86	2985.32
589.06	2859.17
589.26	2909.34
589.46	2722.36
589.66	2277.34
589.86	2160.20
590.06	2392.64
590.26	2704.96
590.46	2580.44
590.66	2747.15
590.85	2797.12
591.05	2901.56
591.25	2454.70
591.45	2456.74
591.65	2664.00
591.85	2719.50
592.05	2525.15
592.25	2725.03
592.45	3023.62
592.64	2794.86
592.84	2567.54
593.04	2398.58
593.24	3012.97
593.44	2497.09
593.64	2416.19
593.84	2468.62
594.04	2451.21
594.24	2727.89
594.43	2236.79
594.63	2216.52
