SpectraSuite Data File
++++++++++++++++++++++++++++++++++++
Date: Thu Mar 30 16:26:25 PDT 2017
User: UCSD _CER
Dark Spectrum Present: No
Reference Spectrum Present: No
Number of Sampled Component Spectra: 1
Spectrometers: USB4C00073
Integration Time (usec): 250000 (USB4C00073)
Spectra Averaged: 10 (USB4C00073)
Boxcar Smoothing: 0 (USB4C00073)
Correct for Electrical Dark: No (USB4C00073)
Strobe/Lamp Enabled: No (USB4C00073)
Correct for Detector Non-linearity: No (USB4C00073)
Correct for Stray Light: No (USB4C00073)
Number of Pixels in Processed Spectrum: 3648
>>>>>Begin Processed Spectral Data<<<<<
345.37	1265.64
345.58	1265.64
345.80	1265.64
346.01	1278.96
346.22	1270.15
346.43	1985.30
346.65	1784.40
346.86	2139.10
347.07	2088.31
347.28	1798.53
347.50	1787.26
347.71	1924.89
347.92	1728.08
348.13	1793.41
348.35	1691.01
348.56	1903.18
348.77	1775.18
348.98	1832.32
349.20	1684.04
349.41	1941.47
349.62	1999.43
349.83	1835.18
350.05	1718.86
350.26	1930.62
350.47	2097.53
350.68	1777.23
350.90	1745.69
351.11	2105.93
351.32	2084.42
351.53	1811.43
351.75	1725.00
351.96	1926.32
352.17	1916.90
352.38	1858.74
352.60	1873.28
352.81	1946.18
353.02	2123.74
353.23	1769.24
353.44	1771.49
353.66	1848.09
353.87	1876.55
354.08	1872.66
354.29	1812.66
354.51	1853.00
354.72	1890.68
354.93	1791.97
355.14	1729.30
355.35	1719.68
355.57	2037.93
355.78	1814.30
355.99	1869.18
356.20	1916.49
356.42	1920.59
356.63	1917.72
356.84	1826.79
357.05	2036.70
357.26	2178.22
357.48	1908.50
357.69	1817.78
357.90	1920.59
358.11	1865.49
358.32	1806.92
358.54	1841.12
358.75	1864.88
358.96	2000.46
359.17	1780.50
359.38	1802.21
359.60	1989.40
359.81	1897.24
360.02	1816.55
360.23	1778.25
360.44	1848.50
360.66	2019.91
360.87	1757.77
361.08	1732.79
361.29	1929.19
361.50	1918.33
361.72	1764.33
361.93	1850.34
362.14	1930.21
362.35	1738.73
362.56	1890.07
362.77	1715.38
362.99	1987.14
363.20	1920.38
363.41	1889.87
363.62	1693.87
363.83	2002.71
364.05	2041.82
364.26	1723.37
364.47	1774.97
364.68	2045.10
364.89	1821.26
365.10	1746.92
365.32	1808.97
365.53	1799.35
365.74	1855.25
365.95	1825.97
366.16	1678.11
366.37	1895.40
366.59	1885.97
366.80	1787.88
367.01	1700.43
367.22	2137.26
367.43	2283.49
367.64	1806.92
367.86	1800.98
368.07	1976.09
368.28	2040.80
368.49	1734.02
368.70	1827.20
368.91	1865.90
369.12	1898.88
369.34	1704.11
369.55	1734.02
369.76	1902.15
369.97	1880.85
370.18	1757.16
370.39	1739.54
370.60	1745.28
370.82	1802.62
371.03	1814.71
371.24	1775.59
371.45	1999.02
371.66	1971.17
371.87	1802.42
372.08	1778.05
372.30	1784.40
372.51	1997.18
372.72	1846.45
372.93	1770.47
373.14	2083.40
373.35	1817.37
373.56	1754.49
373.78	1823.72
373.99	2016.63
374.20	2253.79
374.41	1810.61
374.62	1811.84
374.83	2123.54
375.04	1857.10
375.25	1808.36
375.47	1790.54
375.68	1872.87
375.89	1997.18
376.10	1818.39
376.31	1876.76
376.52	1966.87
376.73	1961.54
376.94	1808.77
377.15	1787.47
377.37	1905.02
377.58	1873.89
377.79	1669.71
378.00	1725.82
378.21	1927.34
378.42	1969.33
378.63	1822.49
378.84	1899.49
379.05	2037.73
379.27	1921.81
379.48	1928.98
379.69	1752.24
379.90	2020.73
380.11	1686.30
380.32	1815.73
380.53	1907.48
380.74	2067.01
380.95	1933.49
381.16	1790.95
381.37	1781.94
381.59	2088.72
381.80	2036.91
382.01	1781.32
382.22	1720.70
382.43	1995.34
382.64	1895.40
382.85	1734.63
383.06	1861.81
383.27	1997.79
383.48	1886.18
383.69	1856.07
383.91	1737.91
384.12	1984.89
384.33	1992.67
384.54	1807.33
384.75	1684.25
384.96	2286.15
385.17	2028.92
385.38	1778.25
385.59	1770.88
385.80	2013.77
386.01	2107.16
386.22	1890.28
386.43	1846.45
386.64	2200.34
386.86	1903.59
387.07	1917.10
387.28	1706.98
387.49	1841.94
387.70	2053.50
387.91	1864.27
388.12	1753.27
388.33	1977.52
388.54	1844.81
388.75	1758.59
388.96	1842.97
389.17	1853.41
389.38	1893.14
389.59	1874.92
389.80	1828.63
390.01	1902.77
390.22	1856.69
390.43	1889.87
390.64	1692.03
390.86	1969.74
391.07	2058.41
391.28	1792.18
391.49	1848.50
391.70	1754.90
391.91	1813.48
392.12	1784.60
392.33	1764.53
392.54	1910.96
392.75	1873.89
392.96	1883.31
393.17	1737.09
393.38	2209.96
393.59	2049.40
393.80	1748.97
394.01	1855.25
394.22	1961.54
394.43	2222.05
394.64	1857.30
394.85	1968.30
395.06	1985.10
395.27	1981.41
395.48	1840.92
395.69	1731.76
395.90	1882.70
396.11	1928.37
396.32	1766.37
396.53	1904.61
396.74	1890.07
396.95	2027.90
397.16	1759.61
397.37	1704.32
397.58	2033.02
397.79	1900.92
398.00	1870.82
398.21	1787.67
398.42	1920.99
398.63	2155.69
398.84	1796.48
399.05	1768.42
399.26	2069.47
399.47	1952.53
399.68	1647.59
399.89	1740.16
400.10	1783.58
400.31	1844.20
400.52	1831.91
400.73	1772.52
400.94	1719.68
401.15	1936.97
401.36	1810.81
401.57	1853.41
401.78	2052.06
401.99	2040.19
402.20	1729.10
402.41	1901.54
402.62	2078.28
402.83	1897.24
403.04	1764.94
403.25	1950.49
403.46	1940.25
403.67	2164.29
403.88	1912.39
404.09	1899.49
404.30	1958.06
404.51	1904.41
404.72	1824.54
404.93	1961.34
405.14	1855.66
405.35	1911.37
405.56	1838.87
405.77	1788.70
405.98	1947.82
406.19	1895.19
406.40	1765.35
406.61	1787.67
406.82	1786.03
407.03	2205.05
407.24	1702.48
407.45	1809.18
407.66	1949.67
407.87	1986.53
408.08	1856.89
408.29	1894.37
408.49	1977.11
408.70	1897.44
408.91	1823.72
409.12	1893.76
409.33	1804.47
409.54	2051.66
409.75	1793.82
409.96	1784.40
410.17	2008.44
410.38	1857.71
410.59	1779.68
410.80	1881.06
411.01	1887.41
411.22	1863.04
411.43	1877.17
411.64	1765.96
411.85	1826.38
412.06	1805.90
412.27	1647.18
412.47	1768.63
412.68	1889.87
412.89	1962.57
413.10	1752.24
413.31	1710.26
413.52	2139.51
413.73	2156.72
413.94	1760.23
414.15	1921.81
414.36	1846.45
414.57	1828.02
414.78	1788.08
414.99	2104.29
415.19	2554.23
415.40	2655.81
415.61	2766.40
415.82	2611.77
416.03	2608.91
416.24	2369.70
416.45	2118.42
416.66	1931.23
416.87	1836.21
417.08	2001.48
417.29	1830.27
417.50	1953.15
417.70	2097.32
417.91	2118.62
418.12	2037.93
418.33	2106.75
418.54	2278.16
418.75	2436.47
418.96	2448.55
419.17	2605.43
419.38	3101.85
419.59	3098.37
419.79	2925.11
420.00	2816.57
420.21	2980.00
420.42	2364.58
420.63	2106.54
420.84	2056.37
421.05	1957.86
421.26	1930.62
421.47	1752.45
421.67	2052.27
421.88	1801.80
422.09	1750.60
422.30	1961.13
422.51	1837.23
422.72	2107.77
422.93	1987.55
423.14	1822.08
423.35	1695.92
423.55	1709.44
423.76	1812.25
423.97	1838.46
424.18	1718.45
424.39	1912.80
424.60	2090.77
424.81	1885.97
425.02	2025.65
425.22	2117.80
425.43	2122.72
425.64	2277.14
425.85	2237.00
426.06	2554.23
426.27	2428.48
426.48	2368.48
426.68	2353.12
426.89	2483.16
427.10	2537.84
427.31	2122.51
427.52	1916.69
427.73	2097.94
427.94	2038.75
428.14	1908.71
428.35	1823.10
428.56	2082.78
428.77	2041.21
428.98	1903.79
429.19	1983.46
429.40	2081.56
429.60	2163.88
429.81	2187.64
430.02	2118.83
430.23	2058.21
430.44	2114.73
430.65	1867.34
430.85	1915.06
431.06	2002.91
431.27	1722.96
431.48	1839.90
431.69	1849.32
431.90	1912.80
432.10	1916.69
432.31	1872.46
432.52	1880.65
432.73	2485.41
432.94	2446.91
433.15	2290.45
433.35	2164.29
433.56	2321.58
433.77	2132.75
433.98	2110.84
434.19	1944.14
434.40	2039.78
434.60	1950.49
434.81	1840.30
435.02	1905.02
435.23	1910.14
435.44	1840.71
435.64	1699.40
435.85	1766.58
436.06	1873.89
436.27	1872.05
436.48	1732.38
436.68	1769.45
436.89	2111.87
437.10	1943.52
437.31	1846.04
437.52	1897.24
437.73	1954.99
437.93	1914.65
438.14	1864.68
438.35	1671.76
438.56	1859.97
438.77	1891.71
438.97	1945.16
439.18	1754.09
439.39	2032.81
439.60	1743.23
439.80	1711.90
440.01	1817.16
440.22	1832.73
440.43	1981.00
440.64	1713.54
440.84	1874.71
441.05	1756.54
441.26	2249.08
441.47	1879.63
441.68	1762.48
441.88	1884.13
442.09	1870.00
442.30	1951.51
442.51	1839.28
442.71	1843.99
442.92	1932.46
443.13	1747.33
443.34	1737.09
443.55	1776.00
443.75	1975.47
443.96	1782.96
444.17	1743.64
444.38	2032.61
444.58	1812.04
444.79	1869.80
445.00	1849.32
445.21	1893.35
445.41	1868.57
445.62	1613.39
445.83	1881.67
446.04	1905.63
446.24	1753.68
446.45	1646.16
446.66	1812.86
446.87	1946.39
447.07	1852.18
447.28	1970.15
447.49	1839.28
447.70	2027.49
447.90	2032.61
448.11	1847.27
448.32	1885.97
448.53	2092.61
448.73	2063.12
448.94	1802.01
449.15	1925.30
449.36	1919.97
449.56	1960.73
449.77	1789.72
449.98	1730.33
450.19	1891.91
450.39	1977.93
450.60	1992.67
450.81	1966.05
451.02	2036.09
451.22	2163.47
451.43	1859.56
451.64	1865.70
451.84	1923.25
452.05	2132.96
452.26	1937.17
452.47	1841.94
452.67	1875.53
452.88	2095.28
453.09	1781.94
453.30	1771.29
453.50	2027.49
453.71	2110.64
453.92	1799.14
454.12	1887.41
454.33	1817.78
454.54	1870.41
454.75	1752.04
454.95	1748.56
455.16	1962.16
455.37	1970.56
455.57	1824.94
455.78	1800.57
455.99	1912.39
456.19	1930.21
456.40	1731.97
456.61	1854.23
456.82	1896.21
457.02	2012.95
457.23	1865.49
457.44	1993.29
457.64	1857.92
457.85	1988.99
458.06	1844.61
458.26	1855.25
458.47	1899.90
458.68	2062.71
458.89	1780.09
459.09	1974.24
459.30	2232.08
459.51	1950.28
459.71	1769.85
459.92	1814.30
460.13	2004.76
460.33	2195.83
460.54	1808.77
460.75	1815.32
460.95	1783.37
461.16	1977.93
461.37	1791.97
461.57	1834.37
461.78	1907.48
461.99	1800.78
462.19	2020.94
462.40	1783.78
462.61	2210.99
462.81	2074.80
463.02	1790.13
463.23	1813.68
463.43	2031.18
463.64	1876.76
463.85	2753.70
464.05	1817.16
464.26	2306.01
464.47	2103.47
464.67	2015.41
464.88	1896.21
465.09	1849.73
465.29	1916.28
465.50	1938.81
465.71	1838.87
465.91	1845.02
466.12	1912.19
466.33	1878.40
466.53	1810.40
466.74	2106.75
466.94	1892.94
467.15	1820.23
467.36	2033.84
467.56	1781.32
467.77	1949.67
467.98	1878.81
468.18	1813.48
468.39	1839.49
468.60	2166.55
468.80	1860.78
469.01	1757.36
469.21	1958.47
469.42	2073.16
469.63	1871.84
469.83	1806.72
470.04	2105.93
470.25	2182.52
470.45	1953.56
470.66	1822.49
470.86	1985.51
471.07	1895.60
471.28	1919.56
471.48	1985.51
471.69	1927.55
471.90	2367.45
472.10	1833.34
472.31	1829.86
472.51	1824.74
472.72	1797.30
472.93	1785.01
473.13	1911.78
473.34	1946.59
473.54	1891.09
473.75	1842.76
473.96	2011.92
474.16	1880.24
474.37	2012.54
474.57	1925.50
474.78	1840.51
474.99	2031.79
475.19	1988.99
475.40	1845.02
475.60	1774.16
475.81	2119.44
476.02	1942.50
476.22	1938.81
476.43	2009.06
476.63	1972.19
476.84	2122.72
477.05	1755.31
477.25	1821.26
477.46	2320.14
477.66	1924.68
477.87	1750.40
478.08	1859.76
478.28	2042.44
478.49	1907.68
478.69	1790.54
478.90	1829.25
479.10	2021.75
479.31	2120.06
479.52	1908.50
479.72	1954.99
479.93	2002.30
480.13	1858.33
480.34	1806.51
480.54	1896.42
480.75	1834.57
480.96	2078.07
481.16	1786.85
481.37	1920.18
481.57	2030.15
481.78	1982.23
481.98	2003.32
482.19	1877.78
482.40	2141.97
482.60	2021.14
482.81	2013.56
483.01	1839.69
483.22	2074.59
483.42	2097.12
483.63	1982.43
483.83	1924.48
484.04	1850.13
484.24	2024.21
484.45	1899.08
484.66	1736.06
484.86	1982.23
485.07	1829.04
485.27	1892.73
485.48	1809.79
485.68	2063.74
485.89	1826.38
486.09	1920.18
486.30	1829.86
486.50	1928.57
486.71	1958.68
486.91	1971.37
487.12	2045.31
487.33	2276.73
487.53	2276.52
487.74	2098.55
487.94	1999.64
488.15	2124.97
488.35	2195.01
488.56	2045.92
488.76	2034.45
488.97	2062.30
489.17	2120.47
489.38	1942.29
489.58	1891.30
489.79	2002.50
489.99	2001.28
490.20	1880.24
490.40	1969.53
490.61	1992.88
490.81	1877.37
491.02	1875.12
491.22	1931.64
491.43	2031.79
491.63	1947.41
491.84	2004.35
492.04	1788.70
492.25	1995.13
492.45	1888.02
492.66	1836.62
492.86	1735.45
493.07	1885.36
493.27	2188.66
493.48	1726.85
493.68	1860.37
493.89	1915.47
494.09	2006.60
494.30	1817.78
494.50	2103.26
494.71	2012.74
494.91	1826.38
495.12	1941.27
495.32	2033.84
495.53	2007.62
495.73	1775.79
495.94	1878.81
496.14	1726.03
496.35	2154.87
496.55	1881.06
496.76	1833.34
496.96	1912.80
497.17	1909.53
497.37	2004.35
497.58	1847.47
497.78	1796.07
497.98	1906.45
498.19	1930.42
498.39	1934.10
498.60	1933.90
498.80	1770.26
499.01	2069.88
499.21	1784.19
499.42	1876.35
499.62	1890.48
499.83	2209.35
500.03	1741.59
500.24	1900.11
500.44	2088.52
500.64	2058.62
500.85	1848.29
501.05	1968.30
501.26	1725.00
501.46	2096.92
501.67	1794.84
501.87	1765.96
502.08	1793.20
502.28	1886.18
502.48	1967.69
502.69	2006.19
502.89	1787.88
503.10	1867.54
503.30	1935.74
503.51	1904.61
503.71	1825.97
503.92	2043.26
504.12	1995.75
504.32	1936.97
504.53	2119.44
504.73	2138.69
504.94	2092.00
505.14	2229.62
505.35	2231.67
505.55	2197.47
505.75	2147.09
505.96	2252.15
506.16	2318.71
506.37	1961.34
506.57	1890.28
506.78	2009.06
506.98	2138.90
507.18	1846.04
507.39	1851.98
507.59	1917.72
507.80	1918.33
508.00	2001.28
508.20	2054.11
508.41	1936.76
508.61	2126.20
508.82	2082.78
509.02	2005.78
509.22	1799.14
509.43	1805.08
509.63	1839.28
509.84	1865.49
510.04	1786.65
510.24	2140.54
510.45	2022.37
510.65	1770.06
510.86	1916.49
511.06	1821.46
511.26	2072.34
511.47	2026.87
511.67	1857.92
511.88	2052.88
512.08	2072.75
512.28	1802.62
512.49	1967.69
512.69	1981.41
512.90	1946.18
513.10	1855.46
513.30	1904.61
513.51	2007.83
513.71	2122.72
513.91	1933.90
514.12	1936.35
514.32	2103.26
514.53	1965.64
514.73	2082.78
514.93	2020.32
515.14	2126.61
515.34	2343.90
515.54	2231.26
515.75	2324.03
515.95	2400.83
516.15	2472.92
516.36	2200.34
516.56	2113.91
516.77	1831.29
516.97	2096.71
517.17	1975.06
517.38	2031.58
517.58	2244.78
517.78	2089.34
517.99	2246.42
518.19	2331.61
518.39	2574.91
518.60	2417.42
518.80	2240.89
519.00	2257.89
519.21	2106.34
519.41	2296.18
519.61	1936.76
519.82	2023.39
520.02	2002.91
520.22	2017.04
520.43	1957.65
520.63	1962.77
520.83	1925.71
521.04	1853.00
521.24	2176.38
521.44	2220.82
521.65	2274.06
521.85	2482.96
522.05	2237.61
522.26	2134.80
522.46	2364.79
522.66	2178.22
522.87	1949.87
523.07	2124.56
523.27	1966.66
523.48	2219.18
523.68	2049.20
523.88	1990.42
524.09	2178.63
524.29	2073.98
524.49	1919.97
524.70	2199.52
524.90	2385.27
525.10	2264.44
525.31	2005.17
525.51	1925.09
525.71	2128.66
525.91	2065.79
526.12	1866.52
526.32	1804.26
526.52	1885.16
526.73	1864.06
526.93	1930.01
527.13	1755.93
527.34	1940.45
527.54	1961.13
527.74	1904.61
527.94	1826.79
528.15	1840.92
528.35	1978.95
528.55	1979.36
528.76	1968.10
528.96	1772.31
529.16	2074.39
529.36	2003.12
529.57	1788.90
529.77	2092.61
529.97	1810.20
530.18	1983.25
530.38	1850.54
530.58	2012.54
530.78	1961.95
530.99	1860.58
531.19	2011.11
531.39	1889.66
531.60	1955.61
531.80	1870.61
532.00	1995.95
532.20	1958.88
532.41	1864.06
532.61	1861.60
532.81	1876.14
533.01	1897.44
533.22	1967.69
533.42	1987.35
533.62	1742.82
533.82	2096.30
534.03	1894.37
534.23	1922.63
534.43	1820.85
534.63	1869.59
534.84	1979.98
535.04	1936.35
535.24	1914.24
535.44	2261.57
535.65	1875.73
535.85	1816.96
536.05	1820.23
536.25	1914.24
536.46	1839.69
536.66	2070.29
536.86	1969.94
537.06	2088.52
537.27	2167.98
537.47	2016.02
537.67	1876.35
537.87	2128.04
538.08	1935.74
538.28	1843.17
538.48	1838.26
538.68	1951.10
538.88	2031.38
539.09	1783.78
539.29	1885.77
539.49	2063.74
539.69	1994.11
539.90	1985.51
540.10	1856.28
540.30	2129.68
540.50	1936.15
540.70	1882.70
540.91	1982.23
541.11	2135.62
541.31	2266.08
541.51	2140.54
541.72	2187.64
541.92	2202.59
542.12	2055.96
542.32	1991.04
542.52	1925.71
542.73	1937.58
542.93	2047.97
543.13	1923.25
543.33	2049.40
543.53	2187.85
543.74	2153.44
543.94	2043.26
544.14	2205.05
544.34	2384.86
544.54	2221.23
544.75	2355.37
544.95	2502.82
545.15	2383.02
545.35	2409.84
545.55	2271.61
545.75	2072.13
545.96	2376.87
546.16	1965.03
546.36	2021.55
546.56	2023.39
546.76	2162.25
546.97	2212.63
547.17	1953.15
547.37	1999.64
547.57	1880.24
547.77	2043.87
547.97	1970.76
548.18	1975.68
548.38	2014.79
548.58	2490.94
548.78	2513.47
548.98	2833.57
549.18	3168.00
549.39	3356.21
549.59	2970.37
549.79	2676.29
549.99	2776.64
550.19	2620.99
550.39	2491.56
550.60	2281.64
550.80	2233.11
551.00	2228.39
551.20	2023.80
551.40	1953.76
551.60	2085.04
551.80	2054.11
552.01	2108.38
552.21	1995.95
552.41	2067.63
552.61	2234.54
552.81	2011.72
553.01	1872.46
553.21	2050.22
553.42	1893.14
553.62	1874.71
553.82	1850.95
554.02	2158.35
554.22	2059.23
554.42	1813.07
554.62	1969.33
554.83	2320.76
555.03	2541.53
555.23	2522.28
555.43	2880.47
555.63	2877.40
555.83	2702.91
556.03	2439.13
556.23	2258.09
556.44	2412.10
556.64	2519.41
556.84	2106.95
557.04	2299.46
557.24	2311.34
557.44	2218.15
557.64	2138.49
557.84	1948.23
558.04	2004.76
558.25	2095.07
558.45	1925.71
558.65	2013.56
558.85	2073.77
559.05	1863.04
559.25	2017.04
559.45	2164.29
559.65	2538.46
559.85	3034.27
560.05	2461.66
560.26	2571.22
560.46	2595.80
560.66	2439.13
560.86	2250.51
561.06	2136.65
561.26	2360.90
561.46	2243.14
561.66	2068.04
561.86	2139.31
562.06	1991.24
562.26	2015.20
562.47	1994.31
562.67	1835.59
562.87	2066.40
563.07	1836.21
563.27	1987.55
563.47	2026.67
563.67	1937.17
563.87	2151.39
564.07	2011.92
564.27	2145.86
564.47	2214.26
564.67	2327.72
564.87	2171.26
565.08	2232.29
565.28	2087.29
565.48	2190.92
565.68	2132.35
565.88	2121.08
566.08	2275.70
566.28	1988.37
566.48	1802.42
566.68	1939.02
566.88	1934.92
567.08	2071.93
567.28	1956.22
567.48	1978.75
567.68	2080.53
567.88	1910.14
568.08	2072.95
568.28	2183.95
568.48	2071.11
568.68	2207.71
568.89	2052.27
569.09	1841.33
569.29	2097.12
569.49	2102.24
569.69	1860.37
569.89	1825.35
570.09	1727.87
570.29	1835.18
570.49	1773.13
570.69	1866.52
570.89	2026.87
571.09	2174.94
571.29	1768.01
571.49	2022.78
571.69	1966.66
571.89	1985.92
572.09	1819.21
572.29	1843.17
572.49	2022.37
572.69	2020.53
572.89	1954.99
573.09	1770.47
573.29	2087.08
573.49	2102.85
573.69	2089.13
573.89	2176.99
574.09	1977.72
574.29	2173.10
574.49	1923.45
574.69	1871.84
574.89	1813.48
575.09	1818.80
575.29	1809.38
575.49	1924.07
575.69	1961.75
575.89	1781.94
576.09	1942.50
576.29	1962.77
576.49	1866.11
576.69	1974.65
576.89	1911.98
577.09	1981.00
577.29	1806.31
577.49	2251.54
577.69	1877.99
577.89	2016.63
578.09	1944.34
578.29	1753.27
578.49	1922.63
578.69	1848.91
578.89	2053.91
579.09	1974.65
579.29	1840.10
579.49	2054.93
579.69	1933.49
579.89	2229.01
580.09	1782.55
580.29	1777.23
580.49	1878.60
580.69	1825.76
580.89	1873.89
581.09	1850.54
581.29	1866.11
581.49	1876.76
581.69	1777.43
581.89	1802.42
582.09	1828.63
582.28	1830.06
582.48	2022.16
582.68	2141.97
582.88	2204.43
583.08	2037.93
583.28	1988.58
583.48	1987.55
583.68	1886.38
583.88	1989.40
584.08	1942.91
584.28	1915.47
584.48	2168.59
584.68	2006.60
584.88	1890.28
585.08	2050.43
585.28	2090.77
585.48	2099.78
585.68	2021.14
585.87	2034.45
586.07	2028.10
586.27	1957.04
586.47	2003.12
586.67	1923.66
586.87	1941.27
587.07	1903.79
587.27	1840.51
587.47	1996.36
587.67	2283.49
587.87	2615.46
588.07	2445.48
588.27	2455.10
588.46	2637.37
588.66	2663.79
588.86	2396.12
589.06	2336.53
589.26	2330.59
589.46	2253.79
589.66	1965.44
589.86	1932.46
590.06	2013.56
590.26	2209.35
590.46	2115.55
590.66	2263.21
590.85	2200.75
591.05	2278.57
591.25	2036.50
591.45	2070.91
591.65	2157.74
591.85	2184.98
592.05	2164.09
592.25	2273.65
592.45	2378.72
592.64	2227.37
592.84	2184.77
593.04	2029.74
593.24	2461.86
593.44	2065.38
593.64	2166.75
593.84	2163.47
594.04	2079.30
594.24	2266.28
594.43	1964.62
594.63	2023.80
