SpectraSuite Data File
++++++++++++++++++++++++++++++++++++
Date: Thu Mar 30 16:29:28 PDT 2017
User: UCSD _CER
Dark Spectrum Present: No
Reference Spectrum Present: No
Number of Sampled Component Spectra: 1
Spectrometers: USB4C00073
Integration Time (usec): 250000 (USB4C00073)
Spectra Averaged: 10 (USB4C00073)
Boxcar Smoothing: 0 (USB4C00073)
Correct for Electrical Dark: No (USB4C00073)
Strobe/Lamp Enabled: No (USB4C00073)
Correct for Detector Non-linearity: No (USB4C00073)
Correct for Stray Light: No (USB4C00073)
Number of Pixels in Processed Spectrum: 3648
>>>>>Begin Processed Spectral Data<<<<<
345.37	1286.74
345.58	1286.74
345.80	1286.74
346.01	1271.17
346.22	1282.23
346.43	1967.69
346.65	1756.13
346.86	2127.84
347.07	2110.02
347.28	1783.78
347.50	1807.95
347.71	1904.41
347.92	1744.25
348.13	1798.53
348.35	1719.68
348.56	1905.63
348.77	1772.52
348.98	1791.97
349.20	1684.04
349.41	1917.51
349.62	2003.73
349.83	1880.04
350.05	1764.33
350.26	1973.63
350.47	2094.46
350.68	1797.50
350.90	1734.63
351.11	2131.12
351.32	2088.72
351.53	1844.20
351.75	1751.22
351.96	1988.58
352.17	1929.19
352.38	1877.58
352.60	1886.59
352.81	1944.34
353.02	2152.82
353.23	1826.17
353.44	1831.50
353.66	1874.51
353.87	1909.53
354.08	1918.95
354.29	1824.74
354.51	1842.35
354.72	1904.00
354.93	1789.52
355.14	1734.83
355.35	1748.15
355.57	2057.39
355.78	1841.53
355.99	1881.88
356.20	1957.04
356.42	1931.64
356.63	1913.62
356.84	1874.92
357.05	2045.31
357.26	2198.90
357.48	1928.78
357.69	1857.10
357.90	2010.08
358.11	1898.26
358.32	1842.76
358.54	1891.50
358.75	1870.61
358.96	2035.27
359.17	1846.65
359.38	1819.83
359.60	2054.93
359.81	1903.38
360.02	1797.71
360.23	1766.37
360.44	1852.80
360.66	2067.42
360.87	1788.90
361.08	1756.95
361.29	1986.73
361.50	1938.20
361.72	1802.83
361.93	1874.10
362.14	1985.10
362.35	1724.39
362.56	1939.22
362.77	1717.84
362.99	1989.60
363.20	1915.26
363.41	1854.64
363.62	1720.70
363.83	1976.90
364.05	2058.62
364.26	1726.44
364.47	1790.54
364.68	2028.51
364.89	1815.93
365.10	1716.61
365.32	1834.98
365.53	1817.78
365.74	1851.57
365.95	1810.40
366.16	1724.18
366.37	1904.61
366.59	1891.30
366.80	1807.33
367.01	1669.91
367.22	2160.61
367.43	2276.52
367.64	1801.80
367.86	1803.44
368.07	2013.97
368.28	2055.96
368.49	1760.23
368.70	1860.99
368.91	1860.17
369.12	1889.87
369.34	1728.49
369.55	1745.28
369.76	1948.64
369.97	1863.04
370.18	1765.76
370.39	1746.92
370.60	1765.96
370.82	1796.89
371.03	1813.07
371.24	1778.25
371.45	2024.83
371.66	2033.63
371.87	1792.38
372.08	1806.31
372.30	1822.49
372.51	2109.00
372.72	1925.71
372.93	1831.91
373.14	2171.05
373.35	1861.60
373.56	1771.49
373.78	1829.04
373.99	2018.89
374.20	2280.62
374.41	1815.52
374.62	1828.84
374.83	2125.38
375.04	1885.77
375.25	1808.77
375.47	1768.01
375.68	1861.40
375.89	2012.33
376.10	1839.08
376.31	1910.14
376.52	1979.77
376.73	1957.45
376.94	1869.59
377.15	1801.39
377.37	1926.11
377.58	1882.70
377.79	1717.63
378.00	1776.41
378.21	1969.74
378.42	2015.00
378.63	1840.51
378.84	1906.04
379.05	2071.73
379.27	1942.50
379.48	1961.34
379.69	1778.25
379.90	2098.55
380.11	1738.73
380.32	1865.09
380.53	1935.54
380.74	2113.50
380.95	1996.16
381.16	1844.20
381.37	1843.79
381.59	2153.85
381.80	2054.32
382.01	1795.86
382.22	1743.44
382.43	2022.16
382.64	1945.98
382.85	1786.03
383.06	1898.26
383.27	2040.80
383.48	1915.26
383.69	1885.16
383.91	1795.45
384.12	2072.34
384.33	2058.62
384.54	1935.13
384.75	1819.62
384.96	2402.47
385.17	2143.40
385.38	1878.40
385.59	1852.80
385.80	2076.03
386.01	2174.74
386.22	1964.82
386.43	1885.97
386.64	2275.50
386.86	1969.53
387.07	2011.11
387.28	1805.69
387.49	1951.51
387.70	2152.01
387.91	1969.53
388.12	1827.61
388.33	2021.75
388.54	1925.09
388.75	1855.05
388.96	1903.38
389.17	1884.54
389.38	1930.62
389.59	1908.50
389.80	1854.64
390.01	1920.18
390.22	1893.35
390.43	1940.45
390.64	1747.94
390.86	1971.37
391.07	2096.71
391.28	1835.18
391.49	1906.25
391.70	1793.00
391.91	1862.83
392.12	1850.95
392.33	1841.53
392.54	1986.94
392.75	1931.23
392.96	1939.63
393.17	1807.54
393.38	2215.90
393.59	2093.02
393.80	1741.59
394.01	1872.46
394.22	1949.46
394.43	2217.34
394.64	1820.03
394.85	1999.02
395.06	1955.81
395.27	1978.54
395.48	1838.87
395.69	1772.72
395.90	1901.74
396.11	1934.10
396.32	1826.58
396.53	1931.64
396.74	1917.72
396.95	2053.91
397.16	1795.66
397.37	1723.16
397.58	2049.81
397.79	1937.17
398.00	1868.16
398.21	1829.04
398.42	1963.59
398.63	2199.31
398.84	1815.11
399.05	1788.08
399.26	2099.17
399.47	1982.23
399.68	1668.48
399.89	1779.89
400.10	1801.80
400.31	1892.32
400.52	1860.37
400.73	1853.82
400.94	1805.08
401.15	2038.14
401.36	1875.94
401.57	1941.47
401.78	2091.18
401.99	2067.42
402.20	1759.21
402.41	1970.15
402.62	2130.91
402.83	1913.01
403.04	1810.61
403.25	2003.32
403.46	2006.80
403.67	2192.56
403.88	1918.54
404.09	1904.20
404.30	1925.30
404.51	1923.86
404.72	1798.94
404.93	1971.17
405.14	1888.02
405.35	1934.92
405.56	1865.49
405.77	1797.71
405.98	1990.22
406.19	1930.21
406.40	1813.27
406.61	1874.10
406.82	1929.60
407.03	2314.41
407.24	1819.83
407.45	1952.12
407.66	2059.23
407.87	2087.70
408.08	1914.85
408.29	1916.08
408.49	2027.90
408.70	1946.80
408.91	1838.26
409.12	1925.50
409.33	1814.50
409.54	2105.52
409.75	1802.01
409.96	1834.98
410.17	2067.63
410.38	1937.38
410.59	1822.49
410.80	1916.69
411.01	1917.72
411.22	1919.97
411.43	1881.06
411.64	1788.49
411.85	1827.40
412.06	1811.02
412.27	1657.42
412.47	1804.87
412.68	1941.27
412.89	2024.21
413.10	1830.47
413.31	1738.73
413.52	2214.06
413.73	2210.78
413.94	1772.93
414.15	1946.80
414.36	1881.26
414.57	1819.21
414.78	1778.66
414.99	1969.53
415.19	2320.76
415.40	2362.95
415.61	2410.25
415.82	2274.06
416.03	2374.21
416.24	2193.78
416.45	2000.46
416.66	1896.83
416.87	1813.89
417.08	2043.87
417.29	1811.84
417.50	1952.74
417.70	2074.18
417.91	2075.82
418.12	1966.25
418.33	1967.89
418.54	2147.91
418.75	2299.66
418.96	2329.97
419.17	2379.94
419.38	2855.89
419.59	2790.77
419.79	2656.83
420.00	2498.93
420.21	2772.34
420.42	2232.49
420.63	2033.63
420.84	2003.94
421.05	1990.22
421.26	1915.87
421.47	1800.57
421.67	2118.62
421.88	1857.10
422.09	1847.88
422.30	2062.71
422.51	1900.72
422.72	2212.83
422.93	2077.25
423.14	1884.75
423.35	1777.64
423.55	1768.83
423.76	1842.97
423.97	1859.76
424.18	1725.41
424.39	1922.02
424.60	2044.90
424.81	1887.00
425.02	2069.06
425.22	2149.34
425.43	2179.65
425.64	2325.67
425.85	2289.83
426.06	2601.53
426.27	2431.35
426.48	2335.91
426.68	2247.65
426.89	2401.24
427.10	2472.51
427.31	2110.43
427.52	1962.16
427.73	2159.99
427.94	2056.37
428.14	1986.94
428.35	1856.69
428.56	2134.60
428.77	2082.99
428.98	1942.09
429.19	1951.10
429.40	2017.66
429.60	2065.38
429.81	2091.18
430.02	2040.19
430.23	2024.83
430.44	2102.04
430.65	1866.52
430.85	1915.67
431.06	2035.68
431.27	1762.89
431.48	1856.28
431.69	1879.83
431.90	1942.91
432.10	1979.36
432.31	1992.06
432.52	1988.37
432.73	2534.98
432.94	2462.89
433.15	2302.12
433.35	2119.44
433.56	2323.01
433.77	2206.89
433.98	2608.50
434.19	2767.22
434.40	3002.12
434.60	2960.75
434.81	2852.82
435.02	2554.02
435.23	2368.27
435.44	2252.36
435.64	1986.73
435.85	1899.90
436.06	1972.60
436.27	1967.89
436.48	1869.80
436.68	1949.46
436.89	2341.65
437.10	2231.06
437.31	2076.03
437.52	2163.27
437.73	2142.99
437.93	2128.86
438.14	2032.20
438.35	1790.74
438.56	1941.06
438.77	1962.98
438.97	2010.49
439.18	1883.52
439.39	2288.61
439.60	2050.02
439.80	2019.91
440.01	2126.00
440.22	2065.58
440.43	2153.03
440.64	1829.86
440.84	1940.66
441.05	1854.03
441.26	2287.99
441.47	1911.37
441.68	1966.87
441.88	2263.01
442.09	2391.00
442.30	2590.07
442.51	2572.25
442.71	2480.91
442.92	2396.74
443.13	2158.35
443.34	2010.29
443.55	1983.05
443.75	2095.28
443.96	1835.59
444.17	1801.60
444.38	2065.38
444.58	1847.88
444.79	1904.61
445.00	1874.71
445.21	1910.96
445.41	1905.84
445.62	1653.12
445.83	1901.95
446.04	1953.56
446.24	1790.95
446.45	1668.07
446.66	1848.91
446.87	1992.06
447.07	1881.88
447.28	2049.40
447.49	1910.55
447.70	2115.55
447.90	2133.78
448.11	1926.32
448.32	1981.00
448.53	2136.44
448.73	2119.44
448.94	1863.65
449.15	1969.74
449.36	1971.37
449.56	1979.98
449.77	1812.04
449.98	1760.23
450.19	1903.18
450.39	2008.03
450.60	2019.09
450.81	2011.72
451.02	2061.69
451.22	2212.63
451.43	1884.13
451.64	1868.36
451.84	1936.56
452.05	2161.02
452.26	1926.93
452.47	1874.92
452.67	1884.95
452.88	2132.14
453.09	1819.62
453.30	1785.01
453.50	2032.81
453.71	2246.42
453.92	2030.56
454.12	2143.20
454.33	2035.27
454.54	2109.82
454.75	1864.47
454.95	1834.37
455.16	2004.76
455.37	2095.28
455.57	1913.42
455.78	1882.49
455.99	1944.75
456.19	1991.65
456.40	1791.77
456.61	1872.66
456.82	1940.04
457.02	2095.28
457.23	2111.25
457.44	2229.01
457.64	2074.80
457.85	2207.51
458.06	2024.01
458.26	2036.50
458.47	2079.30
458.68	2210.37
458.89	1926.93
459.09	2153.44
459.30	2336.53
459.51	2019.09
459.71	1815.93
459.92	1887.20
460.13	2193.17
460.33	2406.16
460.54	2047.97
460.75	2080.94
460.95	2012.74
461.16	2127.63
461.37	1896.01
461.57	1957.65
461.78	2002.30
461.99	1868.57
462.19	2095.89
462.40	1826.17
462.61	2439.75
462.81	2118.21
463.02	1815.11
463.23	1842.15
463.43	2030.15
463.64	1886.18
463.85	2694.51
464.05	1786.03
464.26	2328.13
464.47	2104.70
464.67	2000.05
464.88	1952.94
465.09	1993.29
465.29	2158.35
465.50	2176.17
465.71	2077.66
465.91	2041.01
466.12	1992.88
466.33	1950.90
466.53	1892.53
466.74	2159.17
466.94	1937.99
467.15	1898.67
467.36	2062.10
467.56	1861.60
467.77	1961.75
467.98	1896.83
468.18	1820.44
468.39	1888.43
468.60	2196.86
468.80	1897.44
469.01	1806.51
469.21	1985.71
469.42	2095.28
469.63	1880.44
469.83	1819.01
470.04	2098.35
470.25	2181.09
470.45	1946.59
470.66	1829.66
470.86	1995.54
471.07	1912.60
471.28	1953.97
471.48	2002.30
471.69	1979.16
471.90	2565.08
472.10	2083.81
472.31	2155.90
472.51	2194.60
472.72	2223.48
472.93	2158.76
473.13	2344.11
473.34	2357.21
473.54	2290.45
473.75	2137.26
473.96	2189.28
474.16	2016.63
474.37	2074.39
474.57	1942.50
474.78	1848.29
474.99	2056.57
475.19	1988.78
475.40	1826.17
475.60	1857.51
475.81	2369.09
476.02	2226.96
476.22	2196.04
476.43	2321.78
476.63	2103.06
476.84	2180.47
477.05	1757.16
477.25	1911.37
477.46	2388.14
477.66	1998.82
477.87	1778.25
478.08	1873.28
478.28	2086.47
478.49	1918.95
478.69	1824.54
478.90	1861.81
479.10	2048.58
479.31	2166.34
479.52	1918.33
479.72	2245.80
479.93	2605.43
480.13	2584.33
480.34	2572.45
480.54	2687.55
480.75	2321.37
480.96	2351.68
481.16	2003.32
481.37	2102.85
481.57	2161.63
481.78	2102.85
481.98	2171.87
482.19	1997.18
482.40	2255.22
482.60	2047.56
482.81	1963.59
483.01	1810.20
483.22	2036.91
483.42	2049.81
483.63	1958.68
483.83	1942.29
484.04	2004.76
484.24	2213.44
484.45	2147.30
484.66	2007.21
484.86	2156.51
485.07	1944.96
485.27	1962.98
485.48	1861.60
485.68	2166.34
485.89	1911.37
486.09	1988.17
486.30	1869.80
486.50	1984.48
486.71	1967.48
486.91	1950.69
487.12	2362.13
487.33	2930.44
487.53	3080.55
487.74	3019.12
487.94	2887.43
488.15	2606.86
488.35	2367.25
488.56	2167.77
488.76	2107.56
488.97	2114.53
489.17	2177.81
489.38	2018.07
489.58	1999.43
489.79	2119.44
489.99	2065.17
490.20	1950.28
490.40	1969.74
490.61	2054.32
490.81	1918.33
491.02	1911.37
491.22	1957.65
491.43	2062.92
491.63	1953.56
491.84	2026.06
492.04	1787.26
492.25	2012.74
492.45	1960.32
492.66	1923.66
492.86	1853.82
493.07	2026.67
493.27	2326.08
493.48	1826.79
493.68	1915.26
493.89	1953.15
494.09	2065.58
494.30	1865.70
494.50	2109.41
494.71	2001.48
494.91	1789.11
495.12	1875.94
495.32	1954.58
495.53	1970.35
495.73	1870.61
495.94	2070.70
496.14	1967.69
496.35	2443.84
496.55	2144.63
496.76	1975.27
496.96	2000.05
497.17	1991.24
497.37	2026.26
497.58	1859.76
497.78	1811.43
497.98	1915.26
498.19	1927.34
498.39	1903.79
498.60	1945.37
498.80	1745.28
499.01	2029.95
499.21	1798.32
499.42	1896.21
499.62	1927.96
499.83	2203.61
500.03	1815.52
500.24	2060.87
500.44	2289.42
500.64	2230.65
500.85	2065.99
501.05	2132.55
501.26	1863.45
501.46	2200.34
501.67	1913.01
501.87	1833.14
502.08	1866.93
502.28	1941.68
502.48	1961.34
502.69	2013.97
502.89	1771.90
503.10	1858.74
503.30	1907.89
503.51	1913.01
503.71	1779.07
503.92	2053.09
504.12	1969.33
504.32	1891.30
504.53	2046.94
504.73	2077.87
504.94	2012.54
505.14	2082.37
505.35	2107.77
505.55	2132.96
505.75	2079.71
505.96	2193.17
506.16	2375.03
506.37	2004.14
506.57	1867.75
506.78	1999.84
506.98	2148.73
507.18	1816.96
507.39	1838.46
507.59	1925.30
507.80	1901.13
508.00	1989.40
508.20	2057.18
508.41	1915.67
508.61	2104.70
508.82	2066.40
509.02	2008.65
509.22	1837.23
509.43	1859.56
509.63	1886.59
509.84	1917.10
510.04	1783.58
510.24	2158.56
510.45	2039.37
510.65	1797.50
510.86	1897.65
511.06	1859.76
511.26	2054.32
511.47	1978.34
511.67	1812.66
511.88	2029.33
512.08	2094.25
512.28	1785.21
512.49	1972.19
512.69	2001.28
512.90	1993.70
513.10	1851.57
513.30	1944.34
513.51	2038.55
513.71	2214.47
513.91	2067.01
514.12	2072.95
514.32	2149.75
514.53	1986.73
514.73	1991.65
514.93	1944.96
515.14	1999.23
515.34	2138.08
515.54	1935.33
515.75	1979.36
515.95	2059.85
516.15	2115.14
516.36	2000.25
516.56	1996.36
516.77	1727.67
516.97	2022.57
517.17	1901.33
517.38	1970.76
517.58	2156.51
517.78	1930.21
517.99	1968.30
518.19	1940.66
518.39	2161.02
518.60	1945.16
518.80	1825.76
519.00	1992.67
519.21	1933.08
519.41	2185.80
519.61	1839.69
519.82	1967.69
520.02	1971.99
520.22	1944.14
520.43	1893.76
520.63	1903.79
520.83	1842.76
521.04	1737.09
521.24	1969.74
521.44	1862.01
521.65	1862.42
521.85	2022.98
522.05	1814.50
522.26	1865.29
522.46	2158.15
522.66	2080.12
522.87	1874.30
523.07	2024.42
523.27	1892.73
523.48	2105.93
523.68	1943.73
523.88	1902.77
524.09	2096.30
524.29	1966.05
524.49	1710.26
524.70	1996.97
524.90	2114.12
525.10	2005.37
525.31	1811.84
525.51	1786.24
525.71	2032.40
525.91	2014.79
526.12	1846.86
526.32	1792.38
526.52	1892.12
526.73	1879.63
526.93	1950.49
527.13	1782.35
527.34	1920.38
527.54	1927.75
527.74	1854.44
527.94	1779.48
528.15	1832.32
528.35	1976.70
528.55	1974.65
528.76	1950.28
528.96	1745.28
529.16	2086.88
529.36	2029.33
529.57	1788.49
529.77	2113.30
529.97	1817.16
530.18	1969.12
530.38	1842.56
530.58	2026.47
530.78	1950.69
530.99	1843.58
531.19	1982.64
531.39	1843.17
531.60	1956.83
531.80	1860.99
532.00	2019.91
532.20	1945.98
532.41	1845.42
532.61	1850.54
532.81	1889.66
533.01	1928.16
533.22	2011.31
533.42	2008.65
533.62	1748.35
533.82	2120.47
534.03	1932.26
534.23	1981.61
534.43	1834.57
534.63	1884.34
534.84	1990.83
535.04	1943.32
535.24	1949.26
535.44	2300.07
535.65	1910.96
535.85	1873.89
536.05	1873.89
536.25	1970.97
536.46	1851.57
536.66	2062.92
536.86	1962.36
537.06	2022.78
537.27	2108.38
537.47	1983.25
537.67	1874.51
537.87	2172.28
538.08	1944.75
538.28	1808.77
538.48	1789.52
538.68	1932.67
538.88	2012.54
539.09	1764.94
539.29	1880.65
539.49	2056.37
539.69	2017.45
539.90	1956.22
540.10	1824.54
540.30	2110.64
540.50	1897.24
540.70	1824.54
540.91	1913.01
541.11	2084.83
541.31	2152.01
541.51	1959.70
541.72	1978.54
541.92	2015.61
542.12	1895.19
542.32	1903.79
542.52	1860.78
542.73	1896.62
542.93	2036.30
543.13	1896.21
543.33	1972.81
543.53	2068.45
543.74	2064.15
543.94	1869.39
544.14	2023.19
544.34	2131.32
544.54	2004.35
544.75	2010.70
544.95	2169.82
545.15	2095.28
545.35	2214.47
545.55	2036.91
545.75	1880.85
545.96	2259.32
546.16	1870.41
546.36	1926.11
546.56	1924.68
546.76	2097.12
546.97	2186.21
547.17	1927.75
547.37	1998.61
547.57	1915.87
547.77	2045.92
547.97	1935.74
548.18	1975.27
548.38	1950.90
548.58	2155.49
548.78	1868.57
548.98	1981.00
549.18	2122.11
549.39	2225.73
549.59	2039.98
549.79	1977.31
549.99	2186.41
550.19	2102.04
550.39	2056.16
550.60	1917.92
550.80	2006.80
551.00	2015.20
551.20	1898.88
551.40	1894.37
551.60	2014.59
551.80	2012.95
552.01	2029.33
552.21	1916.28
552.41	1974.45
552.61	2192.76
552.81	1970.15
553.01	1843.99
553.21	2018.89
553.42	1839.49
553.62	1860.99
553.82	1867.75
554.02	2150.78
554.22	2056.16
554.42	1821.67
554.62	1965.44
554.83	2202.39
555.03	2177.81
555.23	2007.62
555.43	2252.36
555.63	2094.46
555.83	2050.22
556.03	1999.23
556.23	1826.38
556.44	2022.16
556.64	2140.74
556.84	1697.56
557.04	1927.75
557.24	1992.67
557.44	1972.40
557.64	1943.32
557.84	1853.62
558.04	1911.37
558.25	2059.23
558.45	1835.80
558.65	1917.10
558.85	1942.50
559.05	1730.94
559.25	1894.58
559.45	2000.25
559.65	2231.47
559.85	2639.83
560.05	2034.66
560.26	2059.64
560.46	2064.76
560.66	1977.31
560.86	1940.04
561.06	1885.56
561.26	2166.34
561.46	2045.51
561.66	1914.44
561.86	2001.68
562.06	1866.31
562.26	1926.93
562.47	1947.62
562.67	1805.69
562.87	2000.05
563.07	1780.50
563.27	1952.12
563.47	1943.93
563.67	1900.92
563.87	2043.87
564.07	1873.48
564.27	1941.47
564.47	1997.59
564.67	2066.40
564.87	1903.79
565.08	2026.26
565.28	1927.96
565.48	2036.70
565.68	1991.44
565.88	2006.19
566.08	2215.90
566.28	1955.61
566.48	1819.83
566.68	1909.73
566.88	1916.28
567.08	2088.11
567.28	1937.58
567.48	1958.68
567.68	2024.83
567.88	1796.89
568.08	1968.51
568.28	2067.22
568.48	1922.43
568.68	2117.60
568.89	1914.24
569.09	1777.64
569.29	2034.66
569.49	2044.69
569.69	1857.51
569.89	1830.88
570.09	1742.00
570.29	1867.54
570.49	1790.54
570.69	1896.62
570.89	2042.03
571.09	2229.42
571.29	1776.00
571.49	2079.51
571.69	1994.31
571.89	2039.37
572.09	1896.21
572.29	1899.49
572.49	2034.86
572.69	2056.98
572.89	1950.08
573.09	1701.66
573.29	1957.04
573.49	1976.70
573.69	1915.67
573.89	2048.58
574.09	1913.62
574.29	2118.62
574.49	1889.87
574.69	1893.55
574.89	1821.46
575.09	1833.75
575.29	1866.72
575.49	1942.91
575.69	1998.41
575.89	1796.68
576.09	1959.50
576.29	1975.88
576.49	1810.81
576.69	1948.85
576.89	1871.84
577.09	1951.51
577.29	1780.50
577.49	2200.95
577.69	1874.30
577.89	2011.11
578.09	1963.39
578.29	1775.79
578.49	1959.29
578.69	1878.81
578.89	2085.24
579.09	1950.90
579.29	1843.38
579.49	2044.69
579.69	1919.36
579.89	2189.69
580.09	1736.68
580.29	1756.54
580.49	1876.96
580.69	1833.14
580.89	1913.62
581.09	1891.91
581.29	1890.89
581.49	1959.29
581.69	1825.15
581.89	1846.04
582.09	1845.63
582.28	1836.82
582.48	2024.62
582.68	2102.24
582.88	2138.28
583.08	1933.69
583.28	1959.09
583.48	1936.97
583.68	1822.69
583.88	1969.53
584.08	1972.81
584.28	1945.16
584.48	2208.94
584.68	2010.70
584.88	1917.10
585.08	2079.10
585.28	2076.23
585.48	2126.41
585.68	2009.88
585.87	2037.73
586.07	2049.40
586.27	1992.06
586.47	2010.29
586.67	1931.44
586.87	1948.44
587.07	1887.20
587.27	1808.77
587.47	1969.53
587.67	2214.47
587.87	2364.38
588.07	2081.35
588.27	1987.55
588.46	2170.64
588.66	2171.46
588.86	2006.39
589.06	2056.37
589.26	2148.11
589.46	2098.55
589.66	1873.28
589.86	1858.74
590.06	1985.51
590.26	2075.00
590.46	1962.57
590.66	2121.90
590.85	1964.82
591.05	2110.43
591.25	1926.11
591.45	1964.62
591.65	2071.93
591.85	2026.06
592.05	1957.86
592.25	2059.23
592.45	2125.59
592.64	1976.29
592.84	1980.59
593.04	1881.47
593.24	2290.24
593.44	1906.25
593.64	2027.49
593.84	2036.09
594.04	1930.42
594.24	2179.04
594.43	1897.65
594.63	1968.51
