SpectraSuite Data File
++++++++++++++++++++++++++++++++++++
Date: Thu Mar 30 16:07:36 PDT 2017
User: UCSD _CER
Dark Spectrum Present: No
Reference Spectrum Present: No
Number of Sampled Component Spectra: 1
Spectrometers: USB4C00073
Integration Time (usec): 250000 (USB4C00073)
Spectra Averaged: 10 (USB4C00073)
Boxcar Smoothing: 0 (USB4C00073)
Correct for Electrical Dark: No (USB4C00073)
Strobe/Lamp Enabled: No (USB4C00073)
Correct for Detector Non-linearity: No (USB4C00073)
Correct for Stray Light: No (USB4C00073)
Number of Pixels in Processed Spectrum: 3648
>>>>>Begin Processed Spectral Data<<<<<
345.37	1271.79
345.58	1271.79
345.80	1271.79
346.01	1284.90
346.22	1288.58
346.43	1967.07
346.65	1779.48
346.86	2136.24
347.07	2083.81
347.28	1803.65
347.50	1791.97
347.71	1930.01
347.92	1723.37
348.13	1785.42
348.35	1715.99
348.56	1916.08
348.77	1788.90
348.98	1791.77
349.20	1672.37
349.41	1892.73
349.62	1999.23
349.83	1843.17
350.05	1729.30
350.26	1960.32
350.47	2062.92
350.68	1769.04
350.90	1712.51
351.11	2104.90
351.32	2041.42
351.53	1818.80
351.75	1715.99
351.96	1948.44
352.17	1883.11
352.38	1840.10
352.60	1870.82
352.81	1898.06
353.02	2119.24
353.23	1753.47
353.44	1823.72
353.66	1840.51
353.87	1871.02
354.08	1880.65
354.29	1787.47
354.51	1845.63
354.72	1929.60
354.93	1798.32
355.14	1739.34
355.35	1767.19
355.57	2051.86
355.78	1847.27
355.99	1890.07
356.20	1959.91
356.42	1922.22
356.63	1920.18
356.84	1825.15
357.05	2040.39
357.26	2185.18
357.48	1900.31
357.69	1840.71
357.90	1966.25
358.11	1848.09
358.32	1798.12
358.54	1848.91
358.75	1849.11
358.96	2016.43
359.17	1800.37
359.38	1803.03
359.60	1993.49
359.81	1871.43
360.02	1799.35
360.23	1779.07
360.44	1840.10
360.66	2033.43
360.87	1755.11
361.08	1757.98
361.29	1964.41
361.50	1899.70
361.72	1788.29
361.93	1849.52
362.14	1904.20
362.35	1760.64
362.56	1887.82
362.77	1731.76
362.99	2010.49
363.20	1926.52
363.41	1882.90
363.62	1713.95
363.83	1962.98
364.05	2031.99
364.26	1719.88
364.47	1788.49
364.68	2064.15
364.89	1821.67
365.10	1731.76
365.32	1814.09
365.53	1802.42
365.74	1867.13
365.95	1821.46
366.16	1696.33
366.37	1875.32
366.59	1882.08
366.80	1806.72
367.01	1675.44
367.22	2136.85
367.43	2219.38
367.64	1803.03
367.86	1787.26
368.07	1973.63
368.28	2051.45
368.49	1746.30
368.70	1832.32
368.91	1863.65
369.12	1889.46
369.34	1718.25
369.55	1711.90
369.76	1913.01
369.97	1843.38
370.18	1742.41
370.39	1731.56
370.60	1738.73
370.82	1786.65
371.03	1808.56
371.24	1736.47
371.45	1996.36
371.66	1961.34
371.87	1800.16
372.08	1769.65
372.30	1780.91
372.51	2014.38
372.72	1868.16
372.93	1754.29
373.14	2110.23
373.35	1827.61
373.56	1744.05
373.78	1811.63
373.99	2008.65
374.20	2265.05
374.41	1788.70
374.62	1813.27
374.83	2099.37
375.04	1859.76
375.25	1799.96
375.47	1771.29
375.68	1848.09
375.89	2021.14
376.10	1801.60
376.31	1909.94
376.52	1976.29
376.73	1955.81
376.94	1825.76
377.15	1773.95
377.37	1909.32
377.58	1872.87
377.79	1695.31
378.00	1759.41
378.21	1957.86
378.42	1994.52
378.63	1827.20
378.84	1887.00
379.05	2036.91
379.27	1941.27
379.48	1934.31
379.69	1751.83
379.90	2054.73
380.11	1667.66
380.32	1796.89
380.53	1924.89
380.74	2083.40
380.95	1927.75
381.16	1813.89
381.37	1795.66
381.59	2070.91
381.80	1997.38
382.01	1743.03
382.22	1671.35
382.43	1980.18
382.64	1929.19
382.85	1748.76
383.06	1890.48
383.27	2026.67
383.48	1906.25
383.69	1864.68
383.91	1757.57
384.12	1993.49
384.33	1953.56
384.54	1807.54
384.75	1691.83
384.96	2252.77
385.17	2015.41
385.38	1768.01
385.59	1777.02
385.80	2021.55
386.01	2111.66
386.22	1852.39
386.43	1805.90
386.64	2176.99
386.86	1891.09
387.07	1917.51
387.28	1706.78
387.49	1858.53
387.70	2084.01
387.91	1862.01
388.12	1751.22
388.33	1963.18
388.54	1862.42
388.75	1777.02
388.96	1869.18
389.17	1833.55
389.38	1885.97
389.59	1890.68
389.80	1824.54
390.01	1892.12
390.22	1852.59
390.43	1896.83
390.64	1688.14
390.86	1936.56
391.07	2053.91
391.28	1790.54
391.49	1827.40
391.70	1771.49
391.91	1798.94
392.12	1808.36
392.33	1789.31
392.54	1906.66
392.75	1862.22
392.96	1872.66
393.17	1739.14
393.38	2179.24
393.59	2074.59
393.80	1769.04
394.01	1887.41
394.22	1999.43
394.43	2311.34
394.64	1886.18
394.85	2077.05
395.06	2005.58
395.27	2024.42
395.48	1863.65
395.69	1757.77
395.90	1866.93
396.11	1895.80
396.32	1776.41
396.53	1881.26
396.74	1875.12
396.95	2017.25
397.16	1784.80
397.37	1701.45
397.58	2005.99
397.79	1904.20
398.00	1846.24
398.21	1801.19
398.42	1942.29
398.63	2154.46
398.84	1785.42
399.05	1790.33
399.26	2076.85
399.47	1975.06
399.68	1642.06
399.89	1730.33
400.10	1764.53
400.31	1837.23
400.52	1819.21
400.73	1781.94
400.94	1720.50
401.15	1924.27
401.36	1790.95
401.57	1829.45
401.78	2042.03
401.99	2024.62
402.20	1720.91
402.41	1934.31
402.62	2105.72
402.83	1900.52
403.04	1780.30
403.25	1960.93
403.46	1993.90
403.67	2225.73
403.88	2010.08
404.09	2002.09
404.30	2085.65
404.51	1987.96
404.72	1889.66
404.93	1991.44
405.14	1861.60
405.35	1921.20
405.56	1812.25
405.77	1817.98
405.98	1937.58
406.19	1910.14
406.40	1730.94
406.61	1791.97
406.82	1808.56
407.03	2208.73
407.24	1700.22
407.45	1845.22
407.66	1940.66
407.87	2016.43
408.08	1869.39
408.29	1877.17
408.49	1978.54
408.70	1877.37
408.91	1822.69
409.12	1887.61
409.33	1781.73
409.54	2070.50
409.75	1789.11
409.96	1800.78
410.17	2004.96
410.38	1867.95
410.59	1784.40
410.80	1881.88
411.01	1913.62
411.22	1884.34
411.43	1845.63
411.64	1760.64
411.85	1792.59
412.06	1789.11
412.27	1631.82
412.47	1799.75
412.68	1884.75
412.89	1974.45
413.10	1786.65
413.31	1716.40
413.52	2136.65
413.73	2174.12
413.94	1785.01
414.15	1928.57
414.36	1854.85
414.57	1817.78
414.78	1833.55
414.99	2383.02
415.19	3008.88
415.40	3189.30
415.61	3391.44
415.82	3228.62
416.03	3049.02
416.24	2685.30
416.45	2373.80
416.66	2051.86
416.87	1853.62
417.08	2073.57
417.29	1875.53
417.50	2009.06
417.70	2216.52
417.91	2207.92
418.12	2197.68
418.33	2302.53
418.54	2485.62
418.75	2677.72
418.96	2810.22
419.17	3198.31
419.38	3866.16
419.59	3921.86
419.79	3795.71
420.00	3587.43
420.21	3440.79
420.42	2708.23
420.63	2298.84
420.84	2155.49
421.05	2015.41
421.26	1940.45
421.47	1745.48
421.67	2029.13
421.88	1812.04
422.09	1749.17
422.30	1953.76
422.51	1827.61
422.72	2120.67
422.93	2018.68
423.14	1807.95
423.35	1704.32
423.55	1698.79
423.76	1812.04
423.97	1854.23
424.18	1722.55
424.39	1944.55
424.60	2107.77
424.81	1912.19
425.02	2172.49
425.22	2291.88
425.43	2379.53
425.64	2560.98
425.85	2582.28
426.06	2872.89
426.27	2718.06
426.48	2808.99
426.68	2739.57
426.89	2816.16
427.10	2862.86
427.31	2357.42
427.52	2064.97
427.73	2184.16
427.94	2085.04
428.14	1937.38
428.35	1842.56
428.56	2093.23
428.77	2027.90
428.98	1927.55
429.19	2126.20
429.40	2270.58
429.60	2332.02
429.81	2384.65
430.02	2311.95
430.23	2200.75
430.44	2238.02
430.65	1931.44
430.85	1915.06
431.06	2009.06
431.27	1709.03
431.48	1810.61
431.69	1876.35
431.90	1922.22
432.10	1950.69
432.31	1904.20
432.52	2037.52
432.73	2695.54
432.94	2716.22
433.15	2589.25
433.35	2466.57
433.56	2593.75
433.77	2284.10
433.98	2230.85
434.19	2095.69
434.40	2152.21
434.60	2047.76
434.81	1887.20
435.02	1931.03
435.23	1954.99
435.44	1848.50
435.64	1698.59
435.85	1772.11
436.06	1907.68
436.27	1871.23
436.48	1757.36
436.68	1781.53
436.89	2124.36
437.10	1998.20
437.31	1848.50
437.52	1901.13
437.73	1932.26
437.93	1936.56
438.14	1879.01
438.35	1702.48
438.56	1850.34
438.77	1877.78
438.97	1945.37
439.18	1762.28
439.39	2023.80
439.60	1764.73
439.80	1689.98
440.01	1830.68
440.22	1845.22
440.43	1988.58
440.64	1730.53
440.84	1850.34
441.05	1756.34
441.26	2267.10
441.47	1850.95
441.68	1779.48
441.88	1888.64
442.09	1894.17
442.30	1957.24
442.51	1853.41
442.71	1869.39
442.92	1944.55
443.13	1763.51
443.34	1774.97
443.55	1775.79
443.75	1986.32
443.96	1782.55
444.17	1746.71
444.38	2033.43
444.58	1837.64
444.79	1889.05
445.00	1839.69
445.21	1892.32
445.41	1886.79
445.62	1641.04
445.83	1899.70
446.04	1937.17
446.24	1748.56
446.45	1670.12
446.66	1788.49
446.87	1962.77
447.07	1869.59
447.28	1995.13
447.49	1854.64
447.70	2014.38
447.90	2033.43
448.11	1832.73
448.32	1892.73
448.53	2083.81
448.73	2094.87
448.94	1814.91
449.15	1933.90
449.36	1939.02
449.56	1961.13
449.77	1805.90
449.98	1751.63
450.19	1952.53
450.39	2068.24
450.60	2104.70
450.81	2062.30
451.02	2141.15
451.22	2284.92
451.43	1934.51
451.64	1933.69
451.84	2002.91
452.05	2201.77
452.26	1997.79
452.47	1887.82
452.67	1868.57
452.88	2114.32
453.09	1788.08
453.30	1744.46
453.50	2012.54
453.71	2099.37
453.92	1823.92
454.12	1904.20
454.33	1860.78
454.54	1862.83
454.75	1737.70
454.95	1789.11
455.16	1928.16
455.37	1999.84
455.57	1873.89
455.78	1821.05
455.99	1900.31
456.19	1930.82
456.40	1747.94
456.61	1854.64
456.82	1907.48
457.02	2006.60
457.23	1876.35
457.44	2011.72
457.64	1871.02
457.85	2028.31
458.06	1857.30
458.26	1991.65
458.47	1953.56
458.68	2064.15
458.89	1841.53
459.09	2049.40
459.30	2284.30
459.51	2025.03
459.71	1792.38
459.92	1842.35
460.13	2026.87
460.33	2219.38
460.54	1834.57
460.75	1859.56
460.95	1799.35
461.16	1992.47
461.37	1826.58
461.57	1849.93
461.78	1947.00
461.99	1803.44
462.19	2063.12
462.40	1840.30
462.61	2434.01
462.81	2084.01
463.02	1801.80
463.23	1846.65
463.43	2039.16
463.64	1897.85
463.85	2793.43
464.05	1848.09
464.26	2341.85
464.47	2172.49
464.67	2006.19
464.88	1929.80
465.09	1850.34
465.29	1948.44
465.50	1962.98
465.71	1837.85
465.91	1863.45
466.12	1906.66
466.33	1895.19
466.53	1789.72
466.74	2113.09
466.94	1867.75
467.15	1840.10
467.36	2011.11
467.56	1837.44
467.77	1963.39
467.98	1881.06
468.18	1798.32
468.39	1868.57
468.60	2145.86
468.80	1854.44
469.01	1778.05
469.21	1983.05
469.42	2098.55
469.63	1961.95
469.83	1892.53
470.04	2150.57
470.25	2277.75
470.45	1961.13
470.66	1868.98
470.86	2029.74
471.07	1936.15
471.28	1931.85
471.48	1996.77
471.69	1966.66
471.90	2414.15
472.10	1840.10
472.31	1854.85
472.51	1842.35
472.72	1850.13
472.93	1746.71
473.13	1970.15
473.34	1949.46
473.54	1893.96
473.75	1875.32
473.96	2007.01
474.16	1944.34
474.37	2033.63
474.57	1984.69
474.78	1881.47
474.99	2049.40
475.19	2045.10
475.40	1842.56
475.60	1778.87
475.81	2114.73
476.02	1956.83
476.22	1996.36
476.43	2101.22
476.63	2029.74
476.84	2201.16
477.05	1774.56
477.25	1842.97
477.46	2337.96
477.66	1934.92
477.87	1761.25
478.08	1841.12
478.28	2041.82
478.49	1909.53
478.69	1793.00
478.90	1832.52
479.10	1997.38
479.31	2158.15
479.52	1937.79
479.72	1981.61
479.93	2041.82
480.13	1871.43
480.34	1809.79
480.54	1916.49
480.75	1846.04
480.96	2092.82
481.16	1814.91
481.37	1927.14
481.57	2041.21
481.78	2004.35
481.98	2021.75
482.19	1893.14
482.40	2189.07
482.60	2050.22
482.81	1974.24
483.01	1911.57
483.22	2156.92
483.42	2134.60
483.63	2011.51
483.83	1969.74
484.04	1888.23
484.24	2050.43
484.45	1935.74
484.66	1736.06
484.86	1951.30
485.07	1850.54
485.27	1909.53
485.48	1816.75
485.68	2109.61
485.89	1856.28
486.09	1979.16
486.30	1854.23
486.50	1965.85
486.71	1996.56
486.91	2056.98
487.12	2128.45
487.33	2364.38
487.53	2373.39
487.74	2213.44
487.94	2116.78
488.15	2247.03
488.35	2328.54
488.56	2211.60
488.76	2165.32
488.97	2136.24
489.17	2164.09
489.38	2024.21
489.58	1944.14
489.79	2048.79
489.99	2006.80
490.20	1944.55
490.40	1990.01
490.61	2017.25
490.81	1898.47
491.02	1892.94
491.22	1981.82
491.43	2039.98
491.63	1989.40
491.84	2037.32
492.04	1820.85
492.25	2014.38
492.45	1909.53
492.66	1832.11
492.86	1756.54
493.07	1910.75
493.27	2233.11
493.48	1762.48
493.68	1882.49
493.89	1931.23
494.09	2050.43
494.30	1855.25
494.50	2098.35
494.71	2045.72
494.91	1888.02
495.12	1989.40
495.32	2110.43
495.53	2052.06
495.73	1838.05
495.94	1909.94
496.14	1733.20
496.35	2198.70
496.55	1900.31
496.76	1884.95
496.96	1951.71
497.17	1975.06
497.37	2025.03
497.58	1866.11
497.78	1833.96
497.98	1927.14
498.19	1949.46
498.39	1964.41
498.60	1992.47
498.80	1795.04
499.01	2084.01
499.21	1818.19
499.42	1893.76
499.62	1915.67
499.83	2230.65
500.03	1765.76
500.24	1941.88
500.44	2105.52
500.64	2082.37
500.85	1840.71
501.05	1980.39
501.26	1764.73
501.46	2101.63
501.67	1808.97
501.87	1781.94
502.08	1824.74
502.28	1915.67
502.48	1963.39
502.69	2018.68
502.89	1828.22
503.10	1915.06
503.30	1991.24
503.51	1944.96
503.71	1799.55
503.92	2065.58
504.12	2057.80
504.32	2033.22
504.53	2158.35
504.73	2237.82
504.94	2164.09
505.14	2333.25
505.35	2353.94
505.55	2373.80
505.75	2247.65
505.96	2349.02
506.16	2446.71
506.37	2047.76
506.57	1966.66
506.78	2073.16
506.98	2198.70
507.18	1916.08
507.39	1887.61
507.59	1991.85
507.80	1922.22
508.00	2075.62
508.20	2142.79
508.41	1987.14
508.61	2180.68
508.82	2103.26
509.02	2020.73
509.22	1841.74
509.43	1849.73
509.63	1882.49
509.84	1871.64
510.04	1796.27
510.24	2176.17
510.45	2039.78
510.65	1784.80
510.86	1924.68
511.06	1873.07
511.26	2088.52
511.47	2038.96
511.67	1909.12
511.88	2107.16
512.08	2121.49
512.28	1789.11
512.49	2005.99
512.69	1976.09
512.90	1969.33
513.10	1870.21
513.30	1931.23
513.51	2031.79
513.71	2143.20
513.91	1951.92
514.12	1964.41
514.32	2155.90
514.53	2046.74
514.73	2180.68
514.93	2120.47
515.14	2217.13
515.34	2530.88
515.54	2389.16
515.75	2505.08
515.95	2668.50
516.15	2653.14
516.36	2360.08
516.56	2206.28
516.77	1914.65
516.97	2159.58
517.17	2033.84
517.38	2107.36
517.58	2304.37
517.78	2179.65
517.99	2387.73
518.19	2513.88
518.39	2813.91
518.60	2653.14
518.80	2429.91
519.00	2389.16
519.21	2175.35
519.41	2346.56
519.61	1993.90
519.82	2053.29
520.02	2051.25
520.22	2079.71
520.43	2008.65
520.63	2025.85
520.83	1990.22
521.04	1944.55
521.24	2325.88
521.44	2378.10
521.65	2495.65
521.85	2709.26
522.05	2490.33
522.26	2309.49
522.46	2489.31
522.66	2240.27
522.87	1990.22
523.07	2167.98
523.27	2027.90
523.48	2242.94
523.68	2060.46
523.88	2067.42
524.09	2257.27
524.29	2137.06
524.49	2038.96
524.70	2343.29
524.90	2546.65
525.10	2406.57
525.31	2105.72
525.51	2015.61
525.71	2167.37
525.91	2099.37
526.12	1894.58
526.32	1811.84
526.52	1904.41
526.73	1865.09
526.93	1957.04
527.13	1809.18
527.34	1972.81
527.54	1983.66
527.74	1923.04
527.94	1888.84
528.15	1904.82
528.35	2032.81
528.55	2032.40
528.76	1969.12
528.96	1767.19
529.16	2080.33
529.36	2022.78
529.57	1811.84
529.77	2089.75
529.97	1818.60
530.18	2009.26
530.38	1891.30
530.58	2015.00
530.78	1989.19
530.99	1887.82
531.19	2022.98
531.39	1931.85
531.60	2019.09
531.80	1900.11
532.00	2046.13
532.20	1988.17
532.41	1877.78
532.61	1888.43
532.81	1894.99
533.01	1892.73
533.22	1975.06
533.42	2015.82
533.62	1731.35
533.82	2089.13
534.03	1942.09
534.23	2001.68
534.43	1842.56
534.63	1907.07
534.84	1994.93
535.04	1916.69
535.24	1924.07
535.44	2285.94
535.65	1909.94
535.85	1855.66
536.05	1831.09
536.25	1917.92
536.46	1901.74
536.66	2108.18
536.86	2027.08
537.06	2123.95
537.27	2188.87
537.47	2015.41
537.67	1910.55
537.87	2154.46
538.08	1977.93
538.28	1836.62
538.48	1869.59
538.68	1984.69
538.88	2081.56
539.09	1847.06
539.29	1946.18
539.49	2081.76
539.69	2022.57
539.90	1981.20
540.10	1878.60
540.30	2181.91
540.50	1985.30
540.70	1926.52
540.91	2005.17
541.11	2215.29
541.31	2373.60
541.51	2238.23
541.72	2259.11
541.92	2361.51
542.12	2154.67
542.32	2079.30
542.52	1979.36
542.73	1949.46
542.93	2104.08
543.13	1992.67
543.33	2115.55
543.53	2248.87
543.74	2239.04
543.94	2132.75
544.14	2327.31
544.34	2513.47
544.54	2401.65
544.75	2536.82
544.95	2725.64
545.15	2558.12
545.35	2558.94
545.55	2365.40
545.75	2132.96
545.96	2439.95
546.16	2047.56
546.36	2059.23
546.56	2072.13
546.76	2210.37
546.97	2249.69
547.17	2020.73
547.37	2047.15
547.57	1918.74
547.77	2061.28
547.97	1956.22
548.18	1993.29
548.38	2049.20
548.58	2640.04
548.78	2806.74
548.98	3225.35
549.18	3623.68
549.39	3855.10
549.59	3431.78
549.79	3040.00
549.99	3049.43
550.19	2828.65
550.39	2701.89
550.60	2380.97
550.80	2345.33
551.00	2328.75
551.20	2089.54
551.40	2015.61
551.60	2150.98
551.80	2084.01
552.01	2161.63
552.21	2067.63
552.41	2090.57
552.61	2288.81
552.81	2019.91
553.01	1898.88
553.21	2079.51
553.42	1896.42
553.62	1905.84
553.82	1863.86
554.02	2154.46
554.22	2058.41
554.42	1859.35
554.62	2021.75
554.83	2450.39
555.03	2787.08
555.23	2820.26
555.43	3256.07
555.63	3252.99
555.83	3077.28
556.03	2713.56
556.23	2501.18
556.44	2645.16
556.64	2722.57
556.84	2303.56
557.04	2500.77
557.24	2498.93
557.44	2349.84
557.64	2221.84
557.84	2035.68
558.04	2076.85
558.25	2169.21
558.45	1968.30
558.65	2081.56
558.85	2123.33
559.05	1914.65
559.25	2117.19
559.45	2237.41
559.65	2736.09
559.85	3292.52
560.05	2777.25
560.26	2943.14
560.46	2993.31
560.66	2732.40
560.86	2496.06
561.06	2303.35
561.26	2539.07
561.46	2365.40
561.66	2139.31
561.86	2217.95
562.06	2062.71
562.26	2102.24
562.47	2052.27
562.67	1910.35
562.87	2109.82
563.07	1868.16
563.27	2061.89
563.47	2067.22
563.67	1997.38
563.87	2178.42
564.07	2104.90
564.27	2270.79
564.47	2349.63
564.67	2497.29
564.87	2363.56
565.08	2415.17
565.28	2239.25
565.48	2291.88
565.68	2215.70
565.88	2192.15
566.08	2291.27
566.28	2025.65
566.48	1855.66
566.68	1924.48
566.88	1916.28
567.08	2100.60
567.28	1980.80
567.48	1992.26
567.68	2135.83
567.88	1968.92
568.08	2153.85
568.28	2273.25
568.48	2135.42
568.68	2296.39
568.89	2115.76
569.09	1882.90
569.29	2155.90
569.49	2114.73
569.69	1892.73
569.89	1839.90
570.09	1740.36
570.29	1886.79
570.49	1772.31
570.69	1816.14
570.89	2045.72
571.09	2211.81
571.29	1792.79
571.49	2061.08
571.69	1985.30
571.89	1991.65
572.09	1824.13
572.29	1842.35
572.49	2022.37
572.69	2012.13
572.89	1978.75
573.09	1832.11
573.29	2152.62
573.49	2227.78
573.69	2207.71
573.89	2258.09
574.09	2050.63
574.29	2207.10
574.49	1963.59
574.69	1914.85
574.89	1859.15
575.09	1837.44
575.29	1839.69
575.49	1897.24
575.69	1962.16
575.89	1782.55
576.09	1922.63
576.29	1991.24
576.49	1897.44
576.69	2001.89
576.89	1969.94
577.09	2031.18
577.29	1874.10
577.49	2224.50
577.69	1931.85
577.89	2058.62
578.09	1980.39
578.29	1789.72
578.49	1930.62
578.69	1868.98
578.89	2112.68
579.09	1981.20
579.29	1856.07
579.49	2091.80
579.69	1962.98
579.89	2256.04
580.09	1795.45
580.29	1774.36
580.49	1889.87
580.69	1842.97
580.89	1894.99
581.09	1875.12
581.29	1868.36
581.49	1922.84
581.69	1788.08
581.89	1814.91
582.09	1823.10
582.28	1840.30
582.48	2041.42
582.68	2183.13
582.88	2276.52
583.08	2110.64
583.28	2063.53
583.48	2050.63
583.68	1959.91
583.88	2026.26
584.08	2002.09
584.28	1942.09
584.48	2190.92
584.68	2009.88
584.88	1909.73
585.08	2075.21
585.28	2105.52
585.48	2172.89
585.68	2064.56
585.87	2075.62
586.07	2047.35
586.27	1977.11
586.47	2047.15
586.67	1948.03
586.87	1951.30
587.07	1936.15
587.27	1853.41
587.47	2059.03
587.67	2415.78
587.87	2803.26
588.07	2655.60
588.27	2681.61
588.46	2956.04
588.66	2973.24
588.86	2635.53
589.06	2525.56
589.26	2473.13
589.46	2350.66
589.66	2061.28
589.86	2008.65
590.06	2118.62
590.26	2304.58
590.46	2234.74
590.66	2419.06
590.85	2362.13
591.05	2476.40
591.25	2215.29
591.45	2195.42
591.65	2300.69
591.85	2328.75
592.05	2266.08
592.25	2458.18
592.45	2563.44
592.64	2403.70
592.84	2317.89
593.04	2146.68
593.24	2546.44
593.44	2174.53
593.64	2229.42
593.84	2283.28
594.04	2155.28
594.24	2346.77
594.43	2006.19
594.63	2059.85
