SpectraSuite Data File
++++++++++++++++++++++++++++++++++++
Date: Thu Mar 30 14:30:28 PDT 2017
User: UCSD _CER
Dark Spectrum Present: No
Reference Spectrum Present: No
Number of Sampled Component Spectra: 1
Spectrometers: USB4C00073
Integration Time (usec): 380000 (USB4C00073)
Spectra Averaged: 10 (USB4C00073)
Boxcar Smoothing: 0 (USB4C00073)
Correct for Electrical Dark: No (USB4C00073)
Strobe/Lamp Enabled: No (USB4C00073)
Correct for Detector Non-linearity: No (USB4C00073)
Correct for Stray Light: No (USB4C00073)
Number of Pixels in Processed Spectrum: 3648
>>>>>Begin Processed Spectral Data<<<<<
345.37	1266.26
345.58	1266.26
345.80	1266.26
346.01	1227.35
346.22	1248.03
346.43	2046.33
346.65	1919.56
346.86	2451.42
347.07	2379.33
347.28	1847.47
347.50	1840.10
347.71	2160.81
347.92	1890.28
348.13	1821.67
348.35	1801.39
348.56	2146.68
348.77	1947.82
348.98	1841.12
349.20	1675.03
349.41	2172.89
349.62	2288.81
349.83	1951.92
350.05	1816.96
350.26	2211.40
350.47	2357.83
350.68	1848.70
350.90	1748.76
351.11	2393.05
351.32	2356.19
351.53	1865.90
351.75	1786.24
351.96	2206.07
352.17	2130.30
352.38	1912.80
352.60	1901.13
352.81	2171.67
353.02	2443.02
353.23	1794.64
353.44	1842.97
353.66	2071.11
353.87	2105.93
354.08	1899.29
354.29	1831.91
354.51	2012.74
354.72	2081.15
354.93	1814.71
355.14	1783.78
355.35	1879.83
355.57	2306.22
355.78	1854.85
355.99	1916.90
356.20	2104.29
356.42	2066.40
356.63	1895.60
356.84	1814.50
357.05	2281.85
357.26	2496.27
357.48	1981.00
357.69	1891.50
357.90	2244.16
358.11	2067.01
358.32	1882.08
358.54	1882.08
358.75	2048.99
358.96	2266.28
359.17	1835.18
359.38	1883.31
359.60	2257.48
359.81	2102.24
360.02	1864.06
360.23	1811.22
360.44	2026.87
360.66	2284.10
360.87	1803.65
361.08	1802.62
361.29	2185.59
361.50	2152.62
361.72	1840.51
361.93	1938.61
362.14	2158.15
362.35	1903.38
362.56	2013.77
362.77	1731.56
362.99	2259.93
363.20	2118.62
363.41	1885.77
363.62	1686.30
363.83	2241.30
364.05	2286.15
364.26	1789.11
364.47	1839.08
364.68	2319.94
364.89	1991.65
365.10	1759.82
365.32	1862.22
365.53	1996.56
365.74	2057.59
365.95	1838.87
366.16	1713.95
366.37	2102.65
366.59	2079.51
366.80	1859.35
367.01	1735.04
367.22	2501.59
367.43	2659.08
367.64	1895.60
367.86	1829.45
368.07	2223.07
368.28	2361.51
368.49	1752.04
368.70	1895.80
368.91	2096.92
369.12	2107.36
369.34	1742.82
369.55	1749.17
369.76	2114.73
369.97	2062.92
370.18	1729.71
370.39	1811.43
370.60	1910.14
370.82	1964.82
371.03	1863.04
371.24	1802.42
371.45	2271.61
371.66	2224.91
371.87	1844.40
372.08	1863.24
372.30	1994.52
372.51	2350.66
372.72	2016.43
372.93	1862.42
373.14	2438.93
373.35	2042.64
373.56	1785.01
373.78	1850.54
373.99	2285.94
374.20	2676.29
374.41	1820.85
374.62	1814.91
374.83	2405.13
375.04	2069.27
375.25	1875.94
375.47	1874.51
375.68	2070.50
375.89	2281.85
376.10	1879.42
376.31	1918.33
376.52	2190.71
376.73	2199.31
376.94	1902.36
377.15	1808.77
377.37	2134.60
377.58	2092.41
377.79	1745.89
378.00	1801.19
378.21	2187.85
378.42	2259.73
378.63	1900.52
378.84	1930.42
379.05	2318.30
379.27	2136.85
379.48	1944.34
379.69	1808.97
379.90	2357.42
380.11	1836.62
380.32	1846.24
380.53	1979.77
380.74	2381.79
380.95	2163.47
381.16	1898.47
381.37	1885.77
381.59	2392.64
381.80	2323.63
382.01	1812.04
382.22	1759.21
382.43	2209.14
382.64	2154.87
382.85	1761.66
383.06	1903.79
383.27	2261.78
383.48	2053.70
383.69	1874.92
383.91	1798.32
384.12	2275.91
384.33	2265.05
384.54	1931.85
384.75	1822.28
384.96	2736.70
385.17	2351.48
385.38	1880.04
385.59	1825.56
385.80	2246.83
386.01	2418.04
386.22	1955.20
386.43	1873.89
386.64	2538.05
386.86	2097.32
387.07	1958.88
387.28	1757.98
387.49	2036.91
387.70	2357.62
387.91	1978.75
388.12	1846.45
388.33	2199.93
388.54	2067.83
388.75	1815.73
388.96	1912.60
389.17	2060.46
389.38	2074.39
389.59	1909.94
389.80	1957.24
390.01	2099.99
390.22	2071.52
390.43	1968.71
390.64	1710.05
390.86	2207.51
391.07	2316.05
391.28	1838.87
391.49	1927.75
391.70	1922.02
391.91	2016.23
392.12	1867.34
392.33	1962.98
392.54	2210.78
392.75	2131.12
392.96	1984.48
393.17	1852.18
393.38	2538.66
393.59	2330.38
393.80	1764.94
394.01	1871.02
394.22	2094.66
394.43	2463.30
394.64	1738.11
394.85	1934.31
395.06	2142.79
395.27	2167.16
395.48	1836.62
395.69	1758.39
395.90	2102.24
396.11	2139.31
396.32	1839.28
396.53	1958.88
396.74	2125.59
396.95	2317.28
397.16	1822.69
397.37	1747.53
397.58	2308.06
397.79	2153.85
398.00	1916.49
398.21	1893.76
398.42	2172.89
398.63	2481.73
398.84	1862.42
399.05	1824.54
399.26	2364.18
399.47	2209.96
399.68	1727.67
399.89	1793.61
400.10	1948.44
400.31	2077.46
400.52	1927.96
400.73	1830.88
400.94	1920.38
401.15	2222.46
401.36	1882.29
401.57	1914.24
401.78	2364.99
401.99	2301.92
402.20	1806.51
402.41	1999.23
402.62	2403.29
402.83	2102.85
403.04	1804.47
403.25	2035.07
403.46	2166.55
403.67	2354.96
403.88	1842.97
404.09	1821.67
404.30	2002.50
404.51	2009.47
404.72	1778.05
404.93	1985.10
405.14	2007.62
405.35	2106.75
405.56	1876.55
405.77	1793.00
405.98	2184.77
406.19	2132.35
406.40	1789.31
406.61	1860.99
406.82	2034.25
407.03	2572.04
407.24	1823.51
407.45	1882.90
407.66	2188.87
407.87	2308.06
408.08	1934.31
408.29	1948.03
408.49	2231.88
408.70	2119.44
408.91	1819.42
409.12	1975.68
409.33	1952.94
409.54	2389.57
409.75	1815.32
409.96	1862.83
410.17	2311.13
410.38	2092.82
410.59	1843.38
410.80	1952.33
411.01	2112.27
411.22	2097.94
411.43	1929.60
411.64	1816.34
411.85	1986.32
412.06	1985.92
412.27	1641.65
412.47	1816.14
412.68	2101.63
412.89	2191.94
413.10	1835.39
413.31	1745.69
413.52	2477.22
413.73	2505.89
413.94	1819.83
414.15	1995.13
414.36	2038.34
414.57	1969.53
414.78	1755.31
414.99	1780.71
415.19	2228.60
415.40	2133.98
415.61	1930.01
415.82	1904.82
416.03	2260.34
416.24	2180.68
416.45	1863.65
416.66	1778.05
416.87	1888.02
417.08	2220.61
417.29	1780.91
417.50	1881.06
417.70	2226.14
417.91	2172.49
418.12	1890.89
418.33	1847.27
418.54	2192.56
418.75	2322.81
418.96	1973.01
419.17	1924.48
419.38	2348.20
419.59	2207.30
419.79	1943.11
420.00	1871.64
420.21	2625.91
420.42	2116.17
420.63	1822.69
420.84	1906.66
421.05	2127.23
421.26	2164.29
421.47	1794.23
421.67	2211.60
421.88	2025.03
422.09	1966.66
422.30	2093.64
422.51	1900.11
422.72	2466.37
422.93	2308.68
423.14	1922.02
423.35	1751.63
423.55	1883.11
423.76	1989.19
423.97	1862.63
424.18	1728.49
424.39	2070.09
424.60	2275.09
424.81	1853.62
425.02	1894.17
425.22	2102.85
425.43	2074.18
425.64	2053.09
425.85	1884.13
426.06	2501.18
426.27	2293.11
426.48	1978.13
426.68	1959.09
426.89	2267.31
427.10	2465.14
427.31	1917.72
427.52	1819.62
427.73	2267.51
427.94	2209.35
428.14	2049.40
428.35	1931.23
428.56	2397.76
428.77	2299.25
428.98	1917.31
429.19	1888.84
429.40	2054.52
429.60	2099.78
429.81	1983.25
430.02	1909.53
430.23	2109.61
430.44	2266.90
430.65	1828.02
430.85	1871.23
431.06	2241.09
431.27	1875.94
431.48	1880.65
431.69	1905.02
431.90	2153.23
432.10	2167.98
432.31	1966.25
432.52	1876.35
432.73	2576.55
432.94	2457.77
433.15	2060.46
433.35	1863.65
433.56	2356.80
433.77	2170.64
433.98	2162.66
434.19	2056.98
434.40	2396.74
434.60	2389.16
434.81	2212.42
435.02	2115.14
435.23	2253.38
435.44	2139.10
435.64	1837.85
435.85	1835.59
436.06	2089.95
436.27	2063.12
436.48	1784.19
436.68	1857.51
436.89	2475.38
437.10	2357.62
437.31	2004.55
437.52	2094.46
437.73	2285.53
437.93	2246.42
438.14	2003.73
438.35	1802.01
438.56	2093.84
438.77	2132.75
438.97	2065.99
439.18	1884.75
439.39	2340.83
439.60	1941.68
439.80	1842.76
440.01	1896.83
440.22	2068.24
440.43	2280.00
440.64	1829.66
440.84	1943.93
441.05	1964.62
441.26	2635.53
441.47	1983.46
441.68	1941.47
441.88	2282.67
442.09	2314.61
442.30	2291.88
442.51	2342.67
442.71	2376.46
442.92	2379.33
443.13	2042.23
443.34	1934.31
443.55	2054.52
443.75	2287.38
443.96	1890.68
444.17	1803.44
444.38	2298.44
444.58	2003.73
444.79	1966.66
445.00	1953.56
445.21	2114.12
445.41	2071.73
445.62	1704.52
445.83	2003.12
446.04	2150.16
446.24	1896.21
446.45	1728.49
446.66	1890.07
446.87	2208.12
447.07	2026.87
447.28	2141.56
447.49	1894.78
447.70	2288.20
447.90	2311.95
448.11	1959.50
448.32	1983.66
448.53	2415.78
448.73	2360.90
448.94	1882.90
449.15	2030.97
449.36	2173.30
449.56	2226.14
449.77	1870.21
449.98	1757.36
450.19	2036.30
450.39	2056.57
450.60	1960.93
450.81	1970.76
451.02	2113.91
451.22	2383.63
451.43	1818.60
451.64	1877.37
451.84	2056.57
452.05	2364.79
452.26	1906.45
452.47	1899.49
452.67	2042.85
452.88	2376.46
453.09	1817.98
453.30	1833.34
453.50	2291.27
453.71	2524.53
453.92	2027.08
454.12	2221.23
454.33	2207.30
454.54	2289.42
454.75	1937.17
454.95	1902.56
455.16	2187.64
455.37	2300.07
455.57	2015.82
455.78	1925.50
455.99	2151.19
456.19	2155.49
456.40	1832.32
456.61	1937.38
456.82	2137.46
457.02	2322.40
457.23	2129.07
457.44	2231.67
457.64	2231.06
457.85	2371.34
458.06	2041.62
458.26	2113.91
458.47	2161.22
458.68	2347.59
458.89	1894.58
459.09	2084.63
459.30	2512.24
459.51	2159.58
459.71	1782.76
459.92	1855.05
460.13	2281.03
460.33	2554.02
460.54	1959.09
460.75	1970.76
460.95	1963.39
461.16	2232.90
461.37	1940.86
461.57	1912.19
461.78	2141.15
461.99	1957.45
462.19	2140.54
462.40	1856.28
462.61	2522.89
462.81	2296.18
463.02	1863.86
463.23	1868.57
463.43	2221.84
463.64	2053.09
463.85	3191.14
464.05	1899.70
464.26	2680.79
464.47	2334.89
464.67	2103.26
464.88	2056.16
465.09	2149.55
465.29	2312.77
465.50	2225.94
465.71	2134.80
465.91	2192.56
466.12	2182.32
466.33	2006.19
466.53	1891.71
466.74	2418.65
466.94	2125.38
467.15	1973.01
467.36	2097.12
467.56	1982.23
467.77	2172.08
467.98	1940.25
468.18	1918.74
468.39	2050.84
468.60	2457.97
468.80	1873.48
469.01	1839.08
469.21	2221.84
469.42	2356.39
469.63	1902.77
469.83	1852.39
470.04	2255.63
470.25	2381.38
470.45	2045.72
470.66	1916.08
470.86	2205.66
471.07	2066.81
471.28	2016.23
471.48	1980.39
471.69	2197.47
471.90	2950.71
472.10	2172.08
472.31	2191.12
472.51	2331.41
472.72	2287.17
472.93	2033.84
473.13	2161.22
473.34	2301.51
473.54	2251.74
473.75	2042.23
473.96	2173.92
474.16	2147.70
474.37	2263.62
474.57	2032.40
474.78	1875.73
474.99	2227.99
475.19	2187.64
475.40	1940.04
475.60	1931.44
475.81	2647.00
476.02	2377.69
476.22	2278.37
476.43	2324.85
476.63	2288.81
476.84	2453.26
477.05	1874.71
477.25	1940.86
477.46	2728.92
477.66	2203.61
477.87	1900.72
478.08	1942.91
478.28	2305.40
478.49	2103.88
478.69	1908.50
478.90	1885.36
479.10	2256.04
479.31	2425.41
479.52	1988.58
479.72	2072.54
479.93	2285.94
480.13	2115.14
480.34	1982.64
480.54	2068.65
480.75	2046.74
480.96	2394.49
481.16	1885.97
481.37	2016.02
481.57	2309.29
481.78	2281.85
481.98	2166.14
482.19	2031.59
482.40	2454.90
482.60	2249.69
482.81	2063.94
483.01	1840.92
483.22	2307.24
483.42	2295.77
483.63	1985.51
483.83	1973.42
484.04	2075.82
484.24	2330.59
484.45	2136.24
484.66	1901.74
484.86	2235.56
485.07	2015.20
485.27	1987.35
485.48	1892.53
485.68	2353.32
485.89	2031.79
486.09	2031.79
486.30	1938.81
486.50	2167.37
486.71	2115.14
486.91	2024.83
487.12	2277.14
487.33	2921.63
487.53	3035.70
487.74	2649.25
487.94	2588.43
488.15	2565.29
488.35	2478.25
488.56	2115.76
488.76	2027.49
488.97	2234.54
489.17	2329.36
489.38	2114.73
489.58	1989.60
489.79	2277.75
489.99	2237.61
490.20	1982.02
490.40	2072.34
490.61	2194.19
490.81	2060.26
491.02	2017.25
491.22	2004.14
491.43	2279.18
491.63	2123.54
491.84	2084.22
492.04	1847.27
492.25	2222.87
492.45	2099.37
492.66	1916.90
492.86	1815.11
493.07	2115.55
493.27	2526.78
493.48	1852.59
493.68	1900.92
493.89	2106.13
494.09	2282.46
494.30	1922.63
494.50	2164.70
494.71	2246.01
494.91	1901.95
495.12	1949.05
495.32	1975.47
495.53	2174.53
495.73	2003.32
495.94	2196.65
496.14	2029.13
496.35	2723.18
496.55	2289.83
496.76	2030.15
496.96	2058.21
497.17	2169.41
497.37	2247.03
497.58	1952.33
497.78	1863.24
497.98	2100.60
498.19	2097.53
498.39	1956.83
498.60	1980.39
498.80	1862.63
499.01	2255.02
499.21	1831.50
499.42	1986.12
499.62	2088.31
499.83	2501.39
500.03	1855.87
500.24	2060.67
500.44	2355.78
500.64	2333.25
500.85	1925.09
501.05	2059.44
501.26	1896.83
501.46	2330.18
501.67	1876.76
501.87	1849.32
502.08	2000.46
502.28	2087.49
502.48	1996.36
502.69	2043.67
502.89	1887.00
503.10	1984.89
503.30	2002.71
503.51	1992.47
503.71	1887.41
503.92	2222.66
504.12	1983.87
504.32	1891.30
504.53	2257.48
504.73	2216.31
504.94	2070.29
505.14	2183.34
505.35	2264.23
505.55	2228.80
505.75	1988.78
505.96	2137.46
506.16	2504.87
506.37	2085.24
506.57	1883.93
506.78	2054.32
506.98	2316.66
507.18	1908.71
507.39	1859.76
507.59	1942.09
507.80	2020.53
508.00	2163.47
508.20	2147.30
508.41	1914.65
508.61	2336.12
508.82	2312.98
509.02	2063.74
509.22	1865.29
509.43	1937.38
509.63	2031.79
509.84	1979.36
510.04	1795.66
510.24	2404.93
510.45	2262.19
510.65	1849.52
510.86	1991.65
511.06	1929.60
511.26	2258.91
511.47	2125.18
511.67	1911.98
511.88	2219.59
512.08	2312.16
512.28	1872.05
512.49	2000.05
512.69	2139.92
512.90	2165.11
513.10	1942.29
513.30	1985.10
513.51	2216.93
513.71	2431.96
513.91	2035.68
514.12	2024.21
514.32	2275.50
514.53	2043.05
514.73	2049.81
514.93	1948.85
515.14	2118.62
515.34	2357.83
515.54	1916.49
515.75	2004.35
515.95	2230.65
516.15	2356.39
516.36	1990.42
516.56	2014.59
516.77	1802.62
516.97	2214.88
517.17	1963.80
517.38	2043.26
517.58	2387.73
517.78	2065.17
517.99	2037.52
518.19	1941.27
518.39	2319.94
518.60	2046.54
518.80	1858.74
519.00	2005.17
519.21	2099.37
519.41	2451.62
519.61	1894.99
519.82	2052.88
520.02	2134.80
520.22	2123.54
520.43	1929.60
520.63	2026.67
520.83	2030.36
521.04	1832.11
521.24	2051.86
521.44	1960.11
521.65	2006.39
521.85	2243.34
522.05	1893.35
522.26	1899.49
522.46	2480.50
522.66	2264.85
522.87	1968.71
523.07	2127.63
523.27	2067.42
523.48	2382.20
523.68	1959.70
523.88	2048.79
524.09	2326.29
524.29	2170.64
524.49	1844.40
524.70	2042.03
524.90	2336.94
525.10	2236.18
525.31	1855.87
525.51	1873.28
525.71	2255.43
525.91	2260.75
526.12	1958.06
526.32	1881.67
526.52	2016.02
526.73	2001.68
526.93	2001.28
527.13	1836.62
527.34	2108.79
527.54	2124.97
527.74	1970.15
527.94	1870.61
528.15	1975.06
528.35	2148.73
528.55	2072.75
528.76	2008.44
528.96	1854.85
529.16	2302.74
529.36	2071.73
529.57	1868.36
529.77	2360.90
529.97	1981.20
530.18	2048.38
530.38	1937.58
530.58	2228.60
530.78	2182.32
530.99	1929.80
531.19	2013.77
531.39	2002.91
531.60	2144.02
531.80	1991.85
532.00	2139.51
532.20	2160.20
532.41	2018.07
532.61	1913.01
532.81	1884.95
533.01	2043.87
533.22	2229.62
533.42	2091.59
533.62	1841.33
533.82	2377.69
534.03	2097.73
534.23	2064.97
534.43	1903.59
534.63	2060.67
534.84	2183.54
535.04	2060.87
535.24	1980.80
535.44	2602.76
535.65	2078.48
535.85	1930.01
536.05	1889.05
536.25	2125.59
536.46	1981.41
536.66	2128.45
536.86	2008.24
537.06	2236.59
537.27	2346.97
537.47	1999.43
537.67	1945.98
537.87	2367.45
538.08	2093.23
538.28	1861.19
538.48	1852.80
538.68	2073.16
538.88	2246.83
539.09	1803.03
539.29	1965.44
539.49	2295.57
539.69	2192.35
539.90	2062.92
540.10	1872.66
540.30	2361.10
540.50	2018.07
540.70	1825.56
540.91	1907.48
541.11	2267.31
541.31	2396.53
541.51	2039.57
541.72	2041.42
541.92	2184.98
542.12	2016.23
542.32	1999.43
542.52	1933.28
542.73	2006.19
542.93	2197.27
543.13	1942.29
543.33	2055.96
543.53	2263.42
543.74	2218.36
543.94	1911.98
544.14	2031.18
544.34	2320.14
544.54	2106.54
544.75	2040.39
544.95	2131.73
545.15	2254.81
545.35	2411.48
545.55	2081.35
545.75	1965.03
545.96	2539.89
546.16	2005.78
546.36	1973.63
546.56	2010.29
546.76	2326.08
546.97	2417.01
547.17	2008.44
547.37	2058.00
547.57	2072.13
547.77	2277.55
547.97	2030.97
548.18	2044.08
548.38	2118.83
548.58	2370.52
548.78	1922.43
548.98	1982.02
549.18	2300.28
549.39	2398.99
549.59	2041.62
549.79	2013.77
549.99	2387.73
550.19	2306.83
550.39	2152.21
550.60	1989.40
550.80	2206.28
551.00	2240.27
551.20	1949.26
551.40	1954.79
551.60	2210.17
551.80	2188.66
552.01	2060.05
552.21	1979.36
552.41	2180.06
552.61	2465.55
552.81	2060.46
553.01	1908.71
553.21	2226.96
553.42	1994.11
553.62	1981.82
553.82	1896.01
554.02	2385.47
554.22	2288.20
554.42	1887.41
554.62	2111.87
554.83	2383.84
555.03	2407.18
555.23	1984.48
555.43	2247.85
555.63	2147.09
555.83	2171.26
556.03	2061.28
556.23	1859.97
556.44	2156.51
556.64	2340.62
556.84	1739.34
557.04	1968.10
557.24	2172.89
557.44	2163.27
557.64	2033.02
557.84	1909.53
558.04	2073.36
558.25	2280.21
558.45	1914.85
558.65	2002.30
558.85	2155.69
559.05	1839.49
559.25	1978.34
559.45	2066.20
559.65	2477.63
559.85	2980.20
560.05	2016.02
560.26	2070.09
560.46	2074.80
560.66	2037.11
560.86	1940.04
561.06	1914.44
561.26	2365.40
561.46	2247.03
561.66	1962.36
561.86	2087.08
562.06	1987.55
562.26	2109.20
562.47	2021.35
562.67	1885.16
562.87	2245.19
563.07	1858.74
563.27	2020.94
563.47	2001.28
563.67	2062.30
563.87	2259.93
564.07	1902.77
564.27	1956.01
564.47	2142.18
564.67	2162.66
564.87	1950.49
565.08	2040.39
565.28	2051.66
565.48	2216.52
565.68	2033.22
565.88	2119.85
566.08	2474.15
566.28	2126.82
566.48	1855.46
566.68	2004.96
566.88	2115.55
567.08	2292.70
567.28	2025.24
567.48	1987.96
567.68	2195.01
567.88	1903.18
568.08	1984.48
568.28	2115.35
568.48	2077.87
568.68	2340.83
568.89	2032.81
569.09	1855.46
569.29	2279.59
569.49	2267.51
569.69	1872.87
569.89	1887.41
570.09	1814.09
570.29	2017.66
570.49	1888.64
570.69	1978.13
570.89	2251.54
571.09	2472.51
571.29	1868.36
571.49	2123.74
571.69	2169.21
571.89	2222.25
572.09	1984.07
572.29	2014.79
572.49	2283.69
572.69	2252.56
572.89	2015.20
573.09	1728.69
573.29	2104.08
573.49	2119.44
573.69	1965.03
573.89	2019.50
574.09	2023.39
574.29	2309.29
574.49	1987.14
574.69	1873.28
574.89	1916.49
575.09	1958.06
575.29	1865.29
575.49	1976.90
575.69	2161.22
575.89	1915.67
576.09	1981.00
576.29	1983.05
576.49	1943.73
576.69	2075.41
576.89	1948.44
577.09	2006.80
577.29	1875.32
577.49	2414.76
577.69	1922.43
577.89	2102.04
578.09	2151.39
578.29	1840.71
578.49	2012.13
578.69	1865.90
578.89	2307.65
579.09	2127.23
579.29	1887.82
579.49	2103.67
579.69	2063.94
579.89	2401.04
580.09	1760.43
580.29	1820.44
580.49	2029.54
580.69	1951.30
580.89	1934.92
581.09	1955.20
581.29	2011.51
581.49	2096.92
581.69	1890.07
581.89	1923.45
582.09	1978.13
582.28	1986.32
582.48	2059.64
582.68	2122.72
582.88	2362.74
583.08	2071.93
583.28	1983.87
583.48	1996.56
583.68	1979.98
583.88	2128.86
584.08	1981.00
584.28	2030.56
584.48	2481.73
584.68	2235.77
584.88	1946.59
585.08	2188.46
585.28	2283.69
585.48	2336.12
585.68	2037.73
585.87	2104.70
586.07	2208.73
586.27	2157.13
586.47	2052.27
586.67	1942.09
586.87	2115.55
587.07	2045.92
587.27	1845.63
587.47	2034.86
587.67	2398.58
587.87	2575.12
588.07	2035.27
588.27	1927.96
588.46	2275.09
588.66	2261.57
588.86	1945.78
589.06	2005.78
589.26	2247.65
589.46	2246.83
589.66	1902.56
589.86	1868.98
590.06	2046.13
590.26	2173.92
590.46	1928.37
590.66	2042.64
590.85	1985.10
591.05	2160.40
591.25	1901.33
591.45	1955.20
591.65	2216.11
591.85	2126.00
592.05	1912.39
592.25	2025.85
592.45	2262.39
592.64	2043.05
592.84	2013.15
593.04	1898.67
593.24	2566.31
593.44	2031.79
593.64	2019.30
593.84	2053.29
594.04	2061.49
594.24	2407.80
594.43	1928.57
594.63	1989.81
