SpectraSuite Data File
++++++++++++++++++++++++++++++++++++
Date: Thu Mar 30 14:17:40 PDT 2017
User: UCSD _CER
Dark Spectrum Present: No
Reference Spectrum Present: No
Number of Sampled Component Spectra: 1
Spectrometers: USB4C00073
Integration Time (usec): 380000 (USB4C00073)
Spectra Averaged: 10 (USB4C00073)
Boxcar Smoothing: 0 (USB4C00073)
Correct for Electrical Dark: No (USB4C00073)
Strobe/Lamp Enabled: No (USB4C00073)
Correct for Detector Non-linearity: No (USB4C00073)
Correct for Stray Light: No (USB4C00073)
Number of Pixels in Processed Spectrum: 3648
>>>>>Begin Processed Spectral Data<<<<<
345.37	1237.79
345.58	1237.79
345.80	1237.79
346.01	1240.25
346.22	1198.68
346.43	2039.37
346.65	1882.08
346.86	2398.38
347.07	2363.97
347.28	1824.13
347.50	1814.09
347.71	2095.69
347.92	1840.10
348.13	1785.01
348.35	1757.36
348.56	2092.82
348.77	1909.73
348.98	1828.63
349.20	1664.38
349.41	2096.51
349.62	2241.71
349.83	1891.91
350.05	1803.24
350.26	2136.03
350.47	2298.23
350.68	1777.23
350.90	1711.49
351.11	2345.95
351.32	2283.28
351.53	1836.82
351.75	1770.67
351.96	2129.89
352.17	2060.46
352.38	1884.75
352.60	1863.45
352.81	2098.14
353.02	2369.30
353.23	1783.99
353.44	1799.35
353.66	2002.09
353.87	2037.11
354.08	1870.41
354.29	1796.27
354.51	1981.41
354.72	2009.06
354.93	1764.94
355.14	1781.53
355.35	1805.90
355.57	2212.01
355.78	1823.51
355.99	1873.89
356.20	2085.04
356.42	2040.39
356.63	1917.10
356.84	1787.67
357.05	2219.79
357.26	2440.56
357.48	1924.07
357.69	1846.45
357.90	2124.97
358.11	1999.23
358.32	1811.43
358.54	1874.92
358.75	2024.83
358.96	2205.25
359.17	1796.68
359.38	1823.92
359.60	2186.41
359.81	2051.25
360.02	1829.25
360.23	1761.87
360.44	1942.29
360.66	2218.56
360.87	1793.61
361.08	1783.78
361.29	2153.44
361.50	2110.43
361.72	1813.68
361.93	1866.52
362.14	2083.81
362.35	1826.79
362.56	1956.83
362.77	1696.54
362.99	2177.61
363.20	2089.95
363.41	1888.64
363.62	1682.41
363.83	2165.52
364.05	2232.08
364.26	1772.93
364.47	1784.80
364.68	2263.21
364.89	1941.47
365.10	1738.11
365.32	1846.24
365.53	1945.98
365.74	1990.42
365.95	1802.62
366.16	1694.69
366.37	2069.06
366.59	2010.08
366.80	1820.44
367.01	1701.04
367.22	2435.03
367.43	2573.48
367.64	1870.82
367.86	1816.14
368.07	2163.68
368.28	2287.99
368.49	1720.09
368.70	1860.58
368.91	2033.43
369.12	2065.99
369.34	1757.77
369.55	1694.49
369.76	2076.23
369.97	2014.79
370.18	1712.72
370.39	1790.54
370.60	1856.48
370.82	1906.86
371.03	1823.92
371.24	1775.38
371.45	2207.71
371.66	2201.98
371.87	1815.52
372.08	1840.92
372.30	1962.98
372.51	2262.80
372.72	1986.53
372.93	1798.32
373.14	2368.48
373.35	1976.70
373.56	1746.51
373.78	1826.99
373.99	2212.83
374.20	2572.04
374.41	1794.64
374.62	1788.70
374.83	2339.19
375.04	2026.47
375.25	1849.32
375.47	1853.21
375.68	1993.29
375.89	2200.95
376.10	1831.09
376.31	1898.06
376.52	2171.05
376.73	2149.55
376.94	1873.89
377.15	1766.17
377.37	2075.21
377.58	2044.49
377.79	1719.88
378.00	1771.90
378.21	2150.98
378.42	2178.22
378.63	1857.92
378.84	1912.19
379.05	2292.91
379.27	2107.56
379.48	1940.04
379.69	1790.95
379.90	2272.63
380.11	1770.67
380.32	1814.71
380.53	1949.26
380.74	2321.17
380.95	2075.82
381.16	1856.89
381.37	1853.21
381.59	2330.79
381.80	2250.51
382.01	1778.87
382.22	1733.61
382.43	2156.92
382.64	2087.08
382.85	1742.21
383.06	1843.58
383.27	2180.47
383.48	2029.33
383.69	1873.89
383.91	1767.60
384.12	2204.64
384.33	2188.87
384.54	1888.02
384.75	1798.73
384.96	2637.37
385.17	2275.91
385.38	1830.47
385.59	1778.46
385.80	2228.80
386.01	2335.50
386.22	1926.73
386.43	1814.30
386.64	2468.21
386.86	2050.22
387.07	1920.38
387.28	1716.40
387.49	1996.36
387.70	2280.82
387.91	1952.33
388.12	1840.51
388.33	2153.44
388.54	1968.71
388.75	1784.60
388.96	1866.31
389.17	1995.54
389.38	2063.74
389.59	1898.06
389.80	1912.39
390.01	2071.93
390.22	1987.35
390.43	1924.89
390.64	1701.04
390.86	2164.29
391.07	2250.72
391.28	1816.34
391.49	1873.48
391.70	1883.11
391.91	1960.52
392.12	1831.91
392.33	1915.26
392.54	2120.67
392.75	2075.21
392.96	1909.12
393.17	1825.15
393.38	2472.10
393.59	2265.05
393.80	1713.13
394.01	1831.09
394.22	2057.18
394.43	2372.57
394.64	1745.69
394.85	1894.58
395.06	2054.93
395.27	2112.68
395.48	1812.25
395.69	1717.84
395.90	2036.70
396.11	2066.61
396.32	1801.60
396.53	1918.95
396.74	2043.05
396.95	2239.45
397.16	1792.18
397.37	1683.23
397.58	2214.88
397.79	2088.11
398.00	1874.92
398.21	1864.88
398.42	2139.72
398.63	2449.78
398.84	1804.06
399.05	1790.95
399.26	2294.75
399.47	2161.63
399.68	1666.84
399.89	1751.01
400.10	1886.18
400.31	2006.60
400.52	1872.05
400.73	1809.99
400.94	1874.92
401.15	2138.28
401.36	1857.51
401.57	1885.77
401.78	2287.58
401.99	2260.14
402.20	1765.14
402.41	1984.69
402.62	2341.03
402.83	2062.30
403.04	1792.38
403.25	2022.57
403.46	2117.80
403.67	2294.95
403.88	1798.73
404.09	1773.13
404.30	1951.71
404.51	1942.29
404.72	1757.57
404.93	1961.75
405.14	1942.09
405.35	2083.60
405.56	1858.53
405.77	1764.94
405.98	2111.66
406.19	2063.53
406.40	1748.35
406.61	1836.62
406.82	1981.00
407.03	2462.89
407.24	1758.80
407.45	1866.11
407.66	2117.60
407.87	2254.20
408.08	1918.74
408.29	1896.62
408.49	2177.20
408.70	2068.04
408.91	1809.38
409.12	1943.93
409.33	1931.44
409.54	2291.47
409.75	1763.92
409.96	1804.06
410.17	2232.70
410.38	2062.71
410.59	1786.65
410.80	1934.10
411.01	2072.54
411.22	2047.76
411.43	1909.94
411.64	1777.84
411.85	1924.68
412.06	1957.45
412.27	1633.46
412.47	1773.34
412.68	2077.66
412.89	2160.40
413.10	1840.30
413.31	1711.90
413.52	2398.79
413.73	2395.30
413.94	1808.36
414.15	1975.88
414.36	1980.18
414.57	1923.66
414.78	1712.92
414.99	1753.47
415.19	2148.93
415.40	2081.76
415.61	1961.54
415.82	1867.75
416.03	2156.72
416.24	2132.75
416.45	1812.04
416.66	1737.70
416.87	1848.29
417.08	2170.85
417.29	1772.72
417.50	1874.30
417.70	2154.46
417.91	2112.27
418.12	1858.94
418.33	1799.96
418.54	2141.36
418.75	2208.94
418.96	1919.97
419.17	1858.12
419.38	2272.63
419.59	2141.15
419.79	1900.52
420.00	1813.27
420.21	2534.16
420.42	2093.64
420.63	1818.19
420.84	1881.06
421.05	2093.23
421.26	2077.66
421.47	1742.62
421.67	2147.70
421.88	1942.91
422.09	1875.12
422.30	2074.39
422.51	1854.03
422.72	2409.44
422.93	2226.96
423.14	1882.49
423.35	1715.17
423.55	1865.49
423.76	1958.06
423.97	1838.87
424.18	1716.61
424.39	2016.84
424.60	2248.46
424.81	1819.83
425.02	1914.24
425.22	1992.26
425.43	2009.47
425.64	2006.19
425.85	1868.36
426.06	2441.18
426.27	2238.63
426.48	1939.84
426.68	1906.04
426.89	2195.83
427.10	2396.53
427.31	1832.52
427.52	1784.40
427.73	2194.60
427.94	2124.15
428.14	1986.32
428.35	1868.77
428.56	2328.95
428.77	2236.79
428.98	1877.58
429.19	1857.71
429.40	1997.38
429.60	2012.74
429.81	1965.44
430.02	1887.41
430.23	2046.13
430.44	2209.35
430.65	1782.76
430.85	1837.85
431.06	2175.15
431.27	1839.28
431.48	1869.18
431.69	1876.35
431.90	2065.17
432.10	2070.70
432.31	1911.78
432.52	1826.38
432.73	2531.49
432.94	2351.07
433.15	2002.71
433.35	1807.95
433.56	2302.53
433.77	2089.34
433.98	2095.28
434.19	1984.69
434.40	2290.24
434.60	2286.76
434.81	2110.23
435.02	2030.15
435.23	2157.33
435.44	2079.71
435.64	1770.67
435.85	1798.53
436.06	2051.04
436.27	2042.03
436.48	1773.54
436.68	1807.54
436.89	2398.38
437.10	2229.42
437.31	1942.91
437.52	2035.89
437.73	2201.98
437.93	2169.41
438.14	1937.58
438.35	1745.69
438.56	2010.90
438.77	2067.42
438.97	2019.71
439.18	1828.02
439.39	2280.41
439.60	1883.31
439.80	1798.73
440.01	1876.35
440.22	2007.62
440.43	2192.76
440.64	1792.18
440.84	1895.60
441.05	1892.73
441.26	2554.64
441.47	1940.66
441.68	1913.83
441.88	2221.02
442.09	2252.56
442.30	2228.60
442.51	2231.06
442.71	2244.78
442.92	2290.65
443.13	1969.94
443.34	1909.94
443.55	1986.32
443.75	2232.29
443.96	1815.32
444.17	1793.61
444.38	2264.44
444.58	1930.62
444.79	1938.61
445.00	1894.99
445.21	2076.23
445.41	2018.89
445.62	1688.76
445.83	1965.23
446.04	2076.03
446.24	1842.56
446.45	1682.82
446.66	1837.85
446.87	2131.12
447.07	1981.82
447.28	2059.85
447.49	1837.23
447.70	2239.25
447.90	2223.68
448.11	1870.82
448.32	1952.12
448.53	2311.13
448.73	2315.02
448.94	1831.91
449.15	1999.23
449.36	2101.42
449.56	2146.68
449.77	1853.41
449.98	1741.18
450.19	2012.95
450.39	1998.00
450.60	1934.72
450.81	1919.56
451.02	2079.51
451.22	2336.73
451.43	1811.43
451.64	1830.68
451.84	1995.95
452.05	2284.51
452.26	1839.28
452.47	1881.26
452.67	2022.57
452.88	2327.72
453.09	1780.50
453.30	1784.80
453.50	2232.29
453.71	2427.05
453.92	1970.15
454.12	2120.26
454.33	2169.62
454.54	2189.89
454.75	1898.06
454.95	1832.11
455.16	2113.50
455.37	2170.85
455.57	1986.53
455.78	1866.72
455.99	2078.07
456.19	2076.03
456.40	1796.68
456.61	1875.73
456.82	2064.15
457.02	2248.46
457.23	2063.33
457.44	2177.81
457.64	2174.33
457.85	2309.29
458.06	1988.58
458.26	2085.24
458.47	2098.14
458.68	2293.72
458.89	1837.23
459.09	2009.06
459.30	2417.83
459.51	2087.29
459.71	1734.83
459.92	1824.33
460.13	2232.29
460.33	2472.51
460.54	1925.09
460.75	1930.62
460.95	1907.89
461.16	2183.13
461.37	1862.22
461.57	1864.06
461.78	2082.78
461.99	1879.01
462.19	2087.70
462.40	1806.31
462.61	2675.06
462.81	2269.35
463.02	1786.85
463.23	1832.11
463.43	2202.39
463.64	1986.53
463.85	3085.47
464.05	1826.17
464.26	2616.48
464.47	2310.11
464.67	2046.74
464.88	1996.97
465.09	2057.18
465.29	2269.15
465.50	2171.05
465.71	2057.80
465.91	2112.07
466.12	2121.08
466.33	1963.39
466.53	1845.63
466.74	2357.01
466.94	2065.79
467.15	1923.25
467.36	2060.26
467.56	1928.16
467.77	2107.16
467.98	1898.67
468.18	1877.37
468.39	1998.41
468.60	2384.65
468.80	1872.87
469.01	1788.08
469.21	2144.63
469.42	2283.69
469.63	1893.76
469.83	1784.80
470.04	2182.73
470.25	2309.49
470.45	1981.41
470.66	1866.72
470.86	2097.12
471.07	2026.26
471.28	1940.66
471.48	1952.94
471.69	2122.72
471.90	2854.05
472.10	2106.54
472.31	2083.60
472.51	2223.07
472.72	2210.78
472.93	1989.40
473.13	2080.74
473.34	2248.46
473.54	2171.67
473.75	2002.30
473.96	2115.76
474.16	2094.66
474.37	2172.69
474.57	1978.75
474.78	1825.76
474.99	2142.38
475.19	2122.51
475.40	1888.23
475.60	1904.20
475.81	2524.74
476.02	2284.92
476.22	2191.94
476.43	2260.14
476.63	2204.23
476.84	2362.13
477.05	1801.60
477.25	1866.52
477.46	2624.68
477.66	2109.61
477.87	1827.61
478.08	1867.13
478.28	2239.66
478.49	2042.23
478.69	1852.18
478.90	1877.17
479.10	2188.05
479.31	2402.27
479.52	1962.98
479.72	2011.31
479.93	2241.30
480.13	2079.10
480.34	1914.65
480.54	2008.03
480.75	2009.47
480.96	2314.82
481.16	1834.16
481.37	1983.46
481.57	2214.67
481.78	2137.67
481.98	2104.08
482.19	1985.30
482.40	2396.94
482.60	2186.00
482.81	2004.14
483.01	1798.73
483.22	2189.48
483.42	2206.28
483.63	1971.78
483.83	1935.54
484.04	2034.86
484.24	2253.99
484.45	2066.81
484.66	1847.68
484.86	2199.72
485.07	1956.63
485.27	1920.99
485.48	1825.56
485.68	2307.86
485.89	1980.39
486.09	1999.02
486.30	1881.88
486.50	2101.83
486.71	2085.86
486.91	1959.50
487.12	2234.74
487.33	2763.73
487.53	2910.37
487.74	2558.73
487.94	2498.52
488.15	2464.94
488.35	2352.71
488.56	2067.83
488.76	1961.75
488.97	2170.23
489.17	2229.83
489.38	2038.96
489.58	1952.94
489.79	2205.25
489.99	2178.22
490.20	1914.03
490.40	2007.62
490.61	2152.82
490.81	2002.30
491.02	1939.63
491.22	1947.82
491.43	2223.48
491.63	2089.95
491.84	2041.82
492.04	1804.87
492.25	2187.64
492.45	2045.10
492.66	1861.81
492.86	1813.27
493.07	2039.78
493.27	2437.90
493.48	1766.37
493.68	1866.52
493.89	2027.69
494.09	2206.07
494.30	1885.97
494.50	2142.18
494.71	2166.14
494.91	1850.95
495.12	1880.44
495.32	1982.43
495.53	2105.31
495.73	1932.26
495.94	2132.35
496.14	1987.35
496.35	2601.33
496.55	2229.62
496.76	1975.88
496.96	2018.27
497.17	2098.55
497.37	2198.08
497.58	1936.56
497.78	1818.39
497.98	2042.44
498.19	2068.86
498.39	1900.31
498.60	1931.03
498.80	1812.66
499.01	2176.99
499.21	1799.35
499.42	1942.09
499.62	2047.97
499.83	2426.02
500.03	1803.65
500.24	2012.95
500.44	2325.47
500.64	2285.94
500.85	1877.17
501.05	2019.71
501.26	1828.22
501.46	2301.92
501.67	1832.32
501.87	1804.47
502.08	1957.45
502.28	2028.51
502.48	1982.23
502.69	1998.00
502.89	1828.02
503.10	1958.06
503.30	1976.49
503.51	1955.61
503.71	1845.02
503.92	2155.28
504.12	1942.70
504.32	1861.40
504.53	2165.11
504.73	2152.21
504.94	2018.07
505.14	2110.84
505.35	2176.99
505.55	2147.50
505.75	1915.47
505.96	2090.36
506.16	2381.17
506.37	2000.46
506.57	1830.47
506.78	1981.20
506.98	2242.73
507.18	1852.18
507.39	1825.35
507.59	1878.60
507.80	1997.79
508.00	2083.40
508.20	2079.30
508.41	1902.15
508.61	2269.35
508.82	2219.38
509.02	2053.91
509.22	1817.16
509.43	1908.50
509.63	1987.14
509.84	1928.78
510.04	1746.71
510.24	2315.43
510.45	2190.10
510.65	1820.64
510.86	1932.26
511.06	1926.93
511.26	2186.82
511.47	2060.87
511.67	1859.35
511.88	2185.39
512.08	2240.27
512.28	1825.56
512.49	1988.37
512.69	2106.13
512.90	2116.37
513.10	1894.99
513.30	1955.61
513.51	2145.66
513.71	2338.78
513.91	1972.19
514.12	1977.72
514.32	2220.41
514.53	1970.97
514.73	2022.98
514.93	1918.54
515.14	2076.64
515.34	2299.66
515.54	1884.54
515.75	1946.80
515.95	2159.99
516.15	2273.04
516.36	1952.12
516.56	1963.59
516.77	1726.44
516.97	2179.86
517.17	1935.13
517.38	2008.24
517.58	2274.06
517.78	2022.98
517.99	1988.78
518.19	1893.35
518.39	2261.57
518.60	1968.92
518.80	1813.68
519.00	1982.23
519.21	2047.56
519.41	2403.91
519.61	1837.64
519.82	2017.66
520.02	2083.40
520.22	2033.43
520.43	1890.89
520.63	1934.31
520.83	1972.81
521.04	1848.29
521.24	1976.29
521.44	1914.65
521.65	1933.49
521.85	2191.53
522.05	1876.35
522.26	1876.76
522.46	2387.32
522.66	2200.95
522.87	1915.26
523.07	2059.03
523.27	1990.22
523.48	2291.88
523.68	1925.30
523.88	2003.53
524.09	2258.30
524.29	2132.14
524.49	1786.24
524.70	2000.25
524.90	2293.93
525.10	2151.60
525.31	1825.97
525.51	1814.09
525.71	2204.43
525.91	2145.25
526.12	1919.97
526.32	1832.11
526.52	1974.04
526.73	1960.93
526.93	1952.53
527.13	1786.03
527.34	2022.16
527.54	2092.00
527.74	1921.81
527.94	1806.92
528.15	1892.94
528.35	2089.34
528.55	2042.23
528.76	1948.23
528.96	1797.50
529.16	2205.46
529.36	2020.12
529.57	1836.62
529.77	2288.61
529.97	1904.00
530.18	2032.61
530.38	1931.23
530.58	2166.96
530.78	2077.05
530.99	1903.79
531.19	1993.29
531.39	1957.86
531.60	2050.63
531.80	1948.64
532.00	2078.48
532.20	2115.55
532.41	1940.86
532.61	1877.37
532.81	1850.95
533.01	2038.55
533.22	2129.68
533.42	2062.51
533.62	1812.86
533.82	2295.57
534.03	2024.62
534.23	2015.20
534.43	1869.59
534.63	1985.10
534.84	2101.22
535.04	1994.72
535.24	1958.68
535.44	2529.65
535.65	1979.16
535.85	1888.84
536.05	1855.66
536.25	2064.15
536.46	1921.61
536.66	2061.28
536.86	1957.24
537.06	2149.75
537.27	2299.66
537.47	1985.51
537.67	1905.84
537.87	2315.84
538.08	2054.73
538.28	1825.97
538.48	1835.59
538.68	2066.20
538.88	2159.58
539.09	1766.58
539.29	1919.15
539.49	2221.43
539.69	2146.48
539.90	2000.87
540.10	1835.18
540.30	2284.92
540.50	1981.20
540.70	1776.82
540.91	1864.68
541.11	2181.70
541.31	2361.72
541.51	1991.04
541.72	1986.32
541.92	2104.90
542.12	1941.47
542.32	1940.45
542.52	1890.89
542.73	1952.33
542.93	2153.64
543.13	1891.50
543.33	2035.89
543.53	2192.35
543.74	2165.73
543.94	1902.36
544.14	1972.19
544.34	2246.21
544.54	2059.03
544.75	1995.54
544.95	2101.63
545.15	2173.51
545.35	2339.19
545.55	2045.31
545.75	1889.87
545.96	2458.18
546.16	1974.45
546.36	1943.32
546.56	1964.62
546.76	2254.20
546.97	2339.80
547.17	1955.61
547.37	2036.09
547.57	1987.14
547.77	2190.92
547.97	1995.75
548.18	2005.17
548.38	2063.12
548.58	2304.78
548.78	1873.89
548.98	1953.97
549.18	2218.36
549.39	2323.83
549.59	2001.89
549.79	1958.88
549.99	2330.79
550.19	2230.44
550.39	2085.24
550.60	1975.06
550.80	2124.77
551.00	2151.19
551.20	1909.53
551.40	1928.98
551.60	2168.59
551.80	2102.44
552.01	2013.97
552.21	1960.93
552.41	2133.78
552.61	2387.52
552.81	2016.43
553.01	1870.00
553.21	2150.78
553.42	1939.43
553.62	1924.68
553.82	1854.03
554.02	2343.08
554.22	2231.06
554.42	1832.93
554.62	2043.87
554.83	2329.97
555.03	2301.51
555.23	1962.77
555.43	2151.60
555.63	2099.17
555.83	2104.29
556.03	2002.09
556.23	1804.87
556.44	2064.56
556.64	2250.92
556.84	1691.83
557.04	1904.00
557.24	2098.96
557.44	2079.51
557.64	2006.80
557.84	1850.13
558.04	2011.92
558.25	2195.83
558.45	1859.35
558.65	1951.51
558.85	2094.05
559.05	1774.36
559.25	1919.56
559.45	2018.27
559.65	2422.95
559.85	2887.43
560.05	1965.23
560.26	2000.05
560.46	2037.52
560.66	1957.04
560.86	1869.39
561.06	1853.00
561.26	2283.49
561.46	2191.53
561.66	1896.01
561.86	2033.84
562.06	1956.63
562.26	2021.96
562.47	2003.53
562.67	1847.68
562.87	2148.73
563.07	1843.79
563.27	1968.92
563.47	1961.54
563.67	1993.29
563.87	2184.98
564.07	1874.10
564.27	1897.65
564.47	2068.45
564.67	2111.87
564.87	1906.86
565.08	1969.12
565.28	1940.25
565.48	2145.66
565.68	1980.39
565.88	2061.69
566.08	2398.79
566.28	2099.58
566.48	1835.39
566.68	1957.45
566.88	2041.82
567.08	2208.12
567.28	1954.38
567.48	1936.97
567.68	2150.78
567.88	1878.81
568.08	1963.18
568.28	2086.06
568.48	2027.28
568.68	2237.82
568.89	1989.60
569.09	1804.26
569.29	2206.28
569.49	2214.06
569.69	1865.70
569.89	1874.10
570.09	1788.29
570.29	1986.73
570.49	1837.03
570.69	1912.60
570.89	2213.24
571.09	2404.93
571.29	1835.59
571.49	2096.92
571.69	2132.75
571.89	2169.21
572.09	1919.36
572.29	1998.20
572.49	2192.76
572.69	2171.46
572.89	1945.98
573.09	1692.03
573.29	2011.31
573.49	2049.61
573.69	1930.21
573.89	1992.67
574.09	1975.06
574.29	2279.80
574.49	1917.72
574.69	1856.07
574.89	1863.45
575.09	1930.42
575.29	1822.69
575.49	1916.90
575.69	2136.85
575.89	1872.66
576.09	1960.93
576.29	1967.89
576.49	1920.79
576.69	2050.22
576.89	1911.37
577.09	1965.44
577.29	1829.25
577.49	2371.34
577.69	1886.79
577.89	2069.06
578.09	2069.27
578.29	1811.22
578.49	1948.64
578.69	1878.81
578.89	2225.32
579.09	2061.28
579.29	1871.64
579.49	2065.58
579.69	1991.65
579.89	2354.96
580.09	1711.28
580.29	1777.02
580.49	1962.36
580.69	1896.42
580.89	1883.52
581.09	1895.60
581.29	1980.39
581.49	2031.38
581.69	1844.20
581.89	1864.06
582.09	1937.79
582.28	1924.89
582.48	2041.62
582.68	2078.48
582.88	2277.55
583.08	1996.77
583.28	1932.46
583.48	1960.73
583.68	1909.32
583.88	2041.21
584.08	1957.24
584.28	1966.87
584.48	2434.42
584.68	2138.49
584.88	1923.86
585.08	2128.04
585.28	2208.73
585.48	2276.73
585.68	1995.54
585.87	2049.61
586.07	2156.10
586.27	2061.49
586.47	2013.56
586.67	1932.05
586.87	2069.06
587.07	2002.91
587.27	1822.90
587.47	2003.12
587.67	2349.63
587.87	2506.51
588.07	1977.31
588.27	1908.30
588.46	2205.25
588.66	2206.48
588.86	1900.52
589.06	2011.11
589.26	2188.66
589.46	2148.32
589.66	1849.52
589.86	1842.76
590.06	2011.72
590.26	2113.91
590.46	1863.86
590.66	2009.88
590.85	1932.05
591.05	2062.92
591.25	1831.91
591.45	1915.47
591.65	2138.69
591.85	2057.59
592.05	1877.78
592.25	1998.82
592.45	2203.41
592.64	2009.06
592.84	1931.23
593.04	1867.95
593.24	2463.50
593.44	1978.13
593.64	1956.83
593.84	2022.78
594.04	2004.96
594.24	2325.88
594.43	1911.57
594.63	1943.73
