SpectraSuite Data File
++++++++++++++++++++++++++++++++++++
Date: Thu Mar 30 14:31:48 PDT 2017
User: UCSD _CER
Dark Spectrum Present: No
Reference Spectrum Present: No
Number of Sampled Component Spectra: 1
Spectrometers: USB4C00073
Integration Time (usec): 380000 (USB4C00073)
Spectra Averaged: 10 (USB4C00073)
Boxcar Smoothing: 0 (USB4C00073)
Correct for Electrical Dark: No (USB4C00073)
Strobe/Lamp Enabled: No (USB4C00073)
Correct for Detector Non-linearity: No (USB4C00073)
Correct for Stray Light: No (USB4C00073)
Number of Pixels in Processed Spectrum: 3648
>>>>>Begin Processed Spectral Data<<<<<
345.37	1239.43
345.58	1239.43
345.80	1239.43
346.01	1236.56
346.22	1246.80
346.43	2058.62
346.65	1932.26
346.86	2468.42
347.07	2400.63
347.28	1855.66
347.50	1844.61
347.71	2153.03
347.92	1868.57
348.13	1834.98
348.35	1812.45
348.56	2176.38
348.77	1929.19
348.98	1825.97
349.20	1695.10
349.41	2173.10
349.62	2323.01
349.83	1932.46
350.05	1814.50
350.26	2192.76
350.47	2390.39
350.68	1854.23
350.90	1745.28
351.11	2400.63
351.32	2362.33
351.53	1872.46
351.75	1780.30
351.96	2203.41
352.17	2153.03
352.38	1927.14
352.60	1930.42
352.81	2169.62
353.02	2468.01
353.23	1799.75
353.44	1851.16
353.66	2054.32
353.87	2077.05
354.08	1930.62
354.29	1823.31
354.51	2030.15
354.72	2077.25
354.93	1791.97
355.14	1804.47
355.35	1870.82
355.57	2301.71
355.78	1848.09
355.99	1925.71
356.20	2149.75
356.42	2108.18
356.63	1917.31
356.84	1809.18
357.05	2272.22
357.26	2535.59
357.48	1950.69
357.69	1911.98
357.90	2236.18
358.11	2063.94
358.32	1848.50
358.54	1906.66
358.75	2067.83
358.96	2250.72
359.17	1837.85
359.38	1865.09
359.60	2277.55
359.81	2115.55
360.02	1854.64
360.23	1806.51
360.44	2038.14
360.66	2324.65
360.87	1814.91
361.08	1814.30
361.29	2221.64
361.50	2177.61
361.72	1823.51
361.93	1915.06
362.14	2149.34
362.35	1888.84
362.56	2001.89
362.77	1722.34
362.99	2259.32
363.20	2143.40
363.41	1921.40
363.62	1702.07
363.83	2221.84
364.05	2290.65
364.26	1804.47
364.47	1831.50
364.68	2315.23
364.89	2004.55
365.10	1759.82
365.32	1868.57
365.53	1968.10
365.74	2035.89
365.95	1840.51
366.16	1727.05
366.37	2145.25
366.59	2067.83
366.80	1818.60
367.01	1739.54
367.22	2518.18
367.43	2670.14
367.64	1909.53
367.86	1855.87
368.07	2224.91
368.28	2391.82
368.49	1763.71
368.70	1884.34
368.91	2076.85
369.12	2106.54
369.34	1779.89
369.55	1738.52
369.76	2149.75
369.97	2048.38
370.18	1750.60
370.39	1819.01
370.60	1914.85
370.82	1983.66
371.03	1867.13
371.24	1817.98
371.45	2274.68
371.66	2255.84
371.87	1858.12
372.08	1849.11
372.30	2024.21
372.51	2309.49
372.72	2016.63
372.93	1855.05
373.14	2426.84
373.35	2042.23
373.56	1799.96
373.78	1875.94
373.99	2299.46
374.20	2653.35
374.41	1841.12
374.62	1833.34
374.83	2425.61
375.04	2089.13
375.25	1884.95
375.47	1901.13
375.68	2072.75
375.89	2267.72
376.10	1877.17
376.31	1935.13
376.52	2214.06
376.73	2213.44
376.94	1883.93
377.15	1803.24
377.37	2141.36
377.58	2094.46
377.79	1778.05
378.00	1798.94
378.21	2178.22
378.42	2239.86
378.63	1907.89
378.84	1939.84
379.05	2317.48
379.27	2178.63
379.48	1956.01
379.69	1820.85
379.90	2346.97
380.11	1828.02
380.32	1863.04
380.53	1993.90
380.74	2386.50
380.95	2155.90
381.16	1898.26
381.37	1877.58
381.59	2388.96
381.80	2307.86
382.01	1836.82
382.22	1770.47
382.43	2235.56
382.64	2159.38
382.85	1783.17
383.06	1931.23
383.27	2244.37
383.48	2095.28
383.69	1858.94
383.91	1788.70
384.12	2265.46
384.33	2265.67
384.54	1903.59
384.75	1821.87
384.96	2724.82
385.17	2375.64
385.38	1857.30
385.59	1827.20
385.80	2282.67
386.01	2404.72
386.22	1956.01
386.43	1841.74
386.64	2547.06
386.86	2137.87
387.07	1964.21
387.28	1748.15
387.49	2070.70
387.70	2340.42
387.91	1987.55
388.12	1855.87
388.33	2217.75
388.54	2081.35
388.75	1809.38
388.96	1936.35
389.17	2037.52
389.38	2101.63
389.59	1920.59
389.80	1933.90
390.01	2121.08
390.22	2069.47
390.43	1941.06
390.64	1764.94
390.86	2200.13
391.07	2331.00
391.28	1851.77
391.49	1896.21
391.70	1949.67
391.91	2042.03
392.12	1860.37
392.33	1964.82
392.54	2192.76
392.75	2135.21
392.96	1950.69
393.17	1839.28
393.38	2561.60
393.59	2348.00
393.80	1780.71
394.01	1868.98
394.22	2100.81
394.43	2437.29
394.64	1751.83
394.85	1925.91
395.06	2111.66
395.27	2181.09
395.48	1830.88
395.69	1754.49
395.90	2112.27
396.11	2155.90
396.32	1854.03
396.53	1951.92
396.74	2124.36
396.95	2336.32
397.16	1820.23
397.37	1738.93
397.58	2285.94
397.79	2146.48
398.00	1909.32
398.21	1860.78
398.42	2171.67
398.63	2517.98
398.84	1843.58
399.05	1821.46
399.26	2383.22
399.47	2205.46
399.68	1748.56
399.89	1797.30
400.10	1954.99
400.31	2095.89
400.52	1946.80
400.73	1848.50
400.94	1883.31
401.15	2210.58
401.36	1878.40
401.57	1893.14
401.78	2370.73
401.99	2303.15
402.20	1813.89
402.41	1989.60
402.62	2443.64
402.83	2105.72
403.04	1811.02
403.25	2025.65
403.46	2184.36
403.67	2371.34
403.88	1832.93
404.09	1798.12
404.30	1977.52
404.51	1999.23
404.72	1784.60
404.93	2017.66
405.14	2009.67
405.35	2131.53
405.56	1904.82
405.77	1809.59
405.98	2170.23
406.19	2124.97
406.40	1816.55
406.61	1857.51
406.82	2071.93
407.03	2577.16
407.24	1782.55
407.45	1907.89
407.66	2226.14
407.87	2314.82
408.08	1920.59
408.29	1926.32
408.49	2225.73
408.70	2150.37
408.91	1851.77
409.12	1985.30
409.33	1990.42
409.54	2377.69
409.75	1805.49
409.96	1877.78
410.17	2299.46
410.38	2092.20
410.59	1813.27
410.80	1960.93
411.01	2137.87
411.22	2113.71
411.43	1936.56
411.64	1793.00
411.85	2005.58
412.06	1989.60
412.27	1650.87
412.47	1803.65
412.68	2138.08
412.89	2188.05
413.10	1834.98
413.31	1766.17
413.52	2454.08
413.73	2485.01
413.94	1830.06
414.15	1981.82
414.36	2045.31
414.57	1992.26
414.78	1779.48
414.99	1760.23
415.19	2208.12
415.40	2153.85
415.61	1960.11
415.82	1901.74
416.03	2248.26
416.24	2181.91
416.45	1861.81
416.66	1773.54
416.87	1915.47
417.08	2229.21
417.29	1817.57
417.50	1923.25
417.70	2215.49
417.91	2195.22
418.12	1904.00
418.33	1849.32
418.54	2191.12
418.75	2324.65
418.96	1959.09
419.17	1926.32
419.38	2345.74
419.59	2187.85
419.79	1944.14
420.00	1857.10
420.21	2583.31
420.42	2154.26
420.63	1844.20
420.84	1897.85
421.05	2132.75
421.26	2190.92
421.47	1784.60
421.67	2231.88
421.88	2011.51
422.09	1967.28
422.30	2088.52
422.51	1879.63
422.72	2470.26
422.93	2307.45
423.14	1902.77
423.35	1763.10
423.55	1888.23
423.76	1976.49
423.97	1856.89
424.18	1731.35
424.39	2105.72
424.60	2267.92
424.81	1848.91
425.02	1957.86
425.22	2078.28
425.43	2065.79
425.64	2060.67
425.85	1896.83
426.06	2508.56
426.27	2312.98
426.48	1979.77
426.68	1966.66
426.89	2293.11
427.10	2478.45
427.31	1894.37
427.52	1808.56
427.73	2281.64
427.94	2235.36
428.14	2039.37
428.35	1947.21
428.56	2406.36
428.77	2337.55
428.98	1891.30
429.19	1887.61
429.40	2066.61
429.60	2101.42
429.81	1995.75
430.02	1888.23
430.23	2116.58
430.44	2270.58
430.65	1822.90
430.85	1886.38
431.06	2221.43
431.27	1878.40
431.48	1881.67
431.69	1913.01
431.90	2149.75
432.10	2140.74
432.31	1949.26
432.52	1832.52
432.73	2569.79
432.94	2418.04
433.15	2017.66
433.35	1865.09
433.56	2385.47
433.77	2143.81
433.98	2114.73
434.19	2029.54
434.40	2345.95
434.60	2325.88
434.81	2153.03
435.02	2060.05
435.23	2221.84
435.44	2106.54
435.64	1818.39
435.85	1799.35
436.06	2106.54
436.27	2060.26
436.48	1797.30
436.68	1875.53
436.89	2485.62
437.10	2359.46
437.31	1975.68
437.52	2103.67
437.73	2252.56
437.93	2252.36
438.14	2001.48
438.35	1782.14
438.56	2083.40
438.77	2103.06
438.97	2054.52
439.18	1881.47
439.39	2327.52
439.60	1962.57
439.80	1856.28
440.01	1877.99
440.22	2065.38
440.43	2271.61
440.64	1830.68
440.84	1918.54
441.05	1932.67
441.26	2631.64
441.47	1974.45
441.68	1948.44
441.88	2247.85
442.09	2259.11
442.30	2215.08
442.51	2283.49
442.71	2294.34
442.92	2360.69
443.13	2010.70
443.34	1942.91
443.55	2005.37
443.75	2257.68
443.96	1865.49
444.17	1816.14
444.38	2323.63
444.58	1987.35
444.79	1980.18
445.00	1940.25
445.21	2114.94
445.41	2073.36
445.62	1723.57
445.83	1964.21
446.04	2153.85
446.24	1907.27
446.45	1722.14
446.66	1860.78
446.87	2221.23
447.07	2030.15
447.28	2121.08
447.49	1879.63
447.70	2307.45
447.90	2323.63
448.11	1934.10
448.32	2017.04
448.53	2417.42
448.73	2362.33
448.94	1880.85
449.15	2072.54
449.36	2148.32
449.56	2198.49
449.77	1892.12
449.98	1792.38
450.19	2049.61
450.39	2076.23
450.60	1950.90
450.81	1969.94
451.02	2118.62
451.22	2392.44
451.43	1850.34
451.64	1880.24
451.84	2053.91
452.05	2334.89
452.26	1923.04
452.47	1907.07
452.67	2064.97
452.88	2399.40
453.09	1829.04
453.30	1853.00
453.50	2294.75
453.71	2507.74
453.92	2012.95
454.12	2191.94
454.33	2206.89
454.54	2225.73
454.75	1955.61
454.95	1918.95
455.16	2201.16
455.37	2299.66
455.57	2001.68
455.78	1924.07
455.99	2138.49
456.19	2165.73
456.40	1844.81
456.61	1936.56
456.82	2147.70
457.02	2323.22
457.23	2070.70
457.44	2212.22
457.64	2220.61
457.85	2390.80
458.06	2021.55
458.26	2116.17
458.47	2188.87
458.68	2329.97
458.89	1876.35
459.09	2046.74
459.30	2520.44
459.51	2149.34
459.71	1780.71
459.92	1854.64
460.13	2258.70
460.33	2555.25
460.54	1970.35
460.75	1955.40
460.95	1979.36
461.16	2230.65
461.37	1915.87
461.57	1907.68
461.78	2171.87
461.99	1949.46
462.19	2173.71
462.40	1842.56
462.61	2758.82
462.81	2308.06
463.02	1849.52
463.23	1876.96
463.43	2256.66
463.64	2078.07
463.85	3198.31
464.05	1864.88
464.26	2692.87
464.47	2373.39
464.67	2069.68
464.88	2027.08
465.09	2110.84
465.29	2278.98
465.50	2185.18
465.71	2109.61
465.91	2157.94
466.12	2174.53
466.33	2008.24
466.53	1877.78
466.74	2426.02
466.94	2127.02
467.15	1955.61
467.36	2093.02
467.56	1983.66
467.77	2173.71
467.98	1948.03
468.18	1893.76
468.39	2095.48
468.60	2471.49
468.80	1891.09
469.01	1852.59
469.21	2240.68
469.42	2350.86
469.63	1900.11
469.83	1876.35
470.04	2260.96
470.25	2388.75
470.45	2042.03
470.66	1904.82
470.86	2199.31
471.07	2069.27
471.28	2004.14
471.48	2000.25
471.69	2193.37
471.90	2923.88
472.10	2125.79
472.31	2107.16
472.51	2246.62
472.72	2233.51
472.93	1991.65
473.13	2109.20
473.34	2304.78
473.54	2233.51
473.75	2025.65
473.96	2156.51
474.16	2155.90
474.37	2241.71
474.57	2028.31
474.78	1849.11
474.99	2202.59
475.19	2188.46
475.40	1942.70
475.60	1928.57
475.81	2586.58
476.02	2334.48
476.22	2233.92
476.43	2278.77
476.63	2233.31
476.84	2437.70
477.05	1849.93
477.25	1919.77
477.46	2700.45
477.66	2200.95
477.87	1873.69
478.08	1924.27
478.28	2321.58
478.49	2110.84
478.69	1917.51
478.90	1903.79
479.10	2223.07
479.31	2486.64
479.52	1983.46
479.72	2042.64
479.93	2270.17
480.13	2127.84
480.34	1954.58
480.54	2038.75
480.75	2062.51
480.96	2383.43
481.16	1897.03
481.37	2012.95
481.57	2293.93
481.78	2203.20
481.98	2134.80
482.19	2036.09
482.40	2495.45
482.60	2257.48
482.81	2047.15
483.01	1833.75
483.22	2271.40
483.42	2266.69
483.63	2024.83
483.83	1960.11
484.04	2084.22
484.24	2297.21
484.45	2119.44
484.66	1877.37
484.86	2250.10
485.07	2036.09
485.27	1985.92
485.48	1876.35
485.68	2381.38
485.89	2022.57
486.09	2038.14
486.30	1909.12
486.50	2155.69
486.71	2114.53
486.91	2011.31
487.12	2209.14
487.33	2855.69
487.53	2932.90
487.74	2556.27
487.94	2493.81
488.15	2478.45
488.35	2400.01
488.56	2070.50
488.76	2003.53
488.97	2250.72
489.17	2319.53
489.38	2050.43
489.58	1973.63
489.79	2259.11
489.99	2212.42
490.20	1972.19
490.40	2078.89
490.61	2240.89
490.81	2062.51
491.02	1993.70
491.22	2005.58
491.43	2273.04
491.63	2141.15
491.84	2094.46
492.04	1873.07
492.25	2236.79
492.45	2102.65
492.66	1917.10
492.86	1849.32
493.07	2109.61
493.27	2520.84
493.48	1821.26
493.68	1897.44
493.89	2116.78
494.09	2277.75
494.30	1939.84
494.50	2171.26
494.71	2239.66
494.91	1906.25
495.12	1966.46
495.32	2011.92
495.53	2147.50
495.73	1967.48
495.94	2143.20
496.14	1979.77
496.35	2666.05
496.55	2271.81
496.76	1981.41
496.96	2030.15
497.17	2126.61
497.37	2236.59
497.58	1953.97
497.78	1860.17
497.98	2087.49
498.19	2104.08
498.39	1922.63
498.60	1964.41
498.80	1865.90
499.01	2257.48
499.21	1847.47
499.42	2012.54
499.62	2083.40
499.83	2510.40
500.03	1842.35
500.24	2073.98
500.44	2399.40
500.64	2309.70
500.85	1928.16
501.05	2049.20
501.26	1897.65
501.46	2354.96
501.67	1877.37
501.87	1845.42
502.08	2002.50
502.28	2069.06
502.48	2012.13
502.69	2045.51
502.89	1876.76
503.10	2006.19
503.30	2013.15
503.51	1987.55
503.71	1904.82
503.92	2249.90
504.12	1952.12
504.32	1883.93
504.53	2265.87
504.73	2218.77
504.94	2062.92
505.14	2191.74
505.35	2237.61
505.55	2215.08
505.75	1988.99
505.96	2144.63
506.16	2493.20
506.37	2052.88
506.57	1889.87
506.78	2040.19
506.98	2304.17
507.18	1908.50
507.39	1881.26
507.59	1915.67
507.80	2004.96
508.00	2131.12
508.20	2160.81
508.41	1929.39
508.61	2346.97
508.82	2316.46
509.02	2103.88
509.22	1893.96
509.43	1986.73
509.63	2044.28
509.84	1952.53
510.04	1788.90
510.24	2399.81
510.45	2267.10
510.65	1846.04
510.86	2006.80
511.06	1958.68
511.26	2271.61
511.47	2128.04
511.67	1896.62
511.88	2214.67
512.08	2336.32
512.28	1862.63
512.49	2000.05
512.69	2150.98
512.90	2201.36
513.10	1936.56
513.30	2004.14
513.51	2219.18
513.71	2427.46
513.91	2011.51
514.12	2009.06
514.32	2296.80
514.53	2028.10
514.73	2029.13
514.93	1944.14
515.14	2108.18
515.34	2325.47
515.54	1886.38
515.75	2008.85
515.95	2207.10
516.15	2372.16
516.36	1984.07
516.56	1996.97
516.77	1786.85
516.97	2206.07
517.17	1942.09
517.38	2027.08
517.58	2367.04
517.78	2045.10
517.99	2043.87
518.19	1929.60
518.39	2323.63
518.60	2052.88
518.80	1843.17
519.00	1984.07
519.21	2100.60
519.41	2445.07
519.61	1877.37
519.82	2041.21
520.02	2119.44
520.22	2099.37
520.43	1972.81
520.63	2024.62
520.83	2020.73
521.04	1864.68
521.24	2046.33
521.44	1978.54
521.65	1986.73
521.85	2219.59
522.05	1906.25
522.26	1905.84
522.46	2446.71
522.66	2262.19
522.87	1959.91
523.07	2140.33
523.27	2041.82
523.48	2349.02
523.68	1982.23
523.88	2054.93
524.09	2313.18
524.29	2182.52
524.49	1837.64
524.70	2041.42
524.90	2362.13
525.10	2192.76
525.31	1853.41
525.51	1865.09
525.71	2266.08
525.91	2237.82
526.12	1945.37
526.32	1864.88
526.52	2042.85
526.73	2024.21
526.93	1994.93
527.13	1833.96
527.34	2137.26
527.54	2161.22
527.74	1982.84
527.94	1848.29
528.15	1954.99
528.35	2130.50
528.55	2087.08
528.76	1999.64
528.96	1853.62
529.16	2279.39
529.36	2063.12
529.57	1883.52
529.77	2345.54
529.97	1986.32
530.18	2033.63
530.38	1907.68
530.58	2245.39
530.78	2173.51
530.99	1929.39
531.19	2022.57
531.39	2027.69
531.60	2137.46
531.80	1987.14
532.00	2123.54
532.20	2181.50
532.41	1995.75
532.61	1914.44
532.81	1909.12
533.01	2046.54
533.22	2201.16
533.42	2112.48
533.62	1839.69
533.82	2361.31
534.03	2082.37
534.23	2066.20
534.43	1912.39
534.63	2034.04
534.84	2165.73
535.04	2058.62
535.24	1995.34
535.44	2587.81
535.65	2055.55
535.85	1946.39
536.05	1878.19
536.25	2125.59
536.46	1977.72
536.66	2114.73
536.86	2012.74
537.06	2238.63
537.27	2339.60
537.47	2011.72
537.67	1945.78
537.87	2390.39
538.08	2095.28
538.28	1888.23
538.48	1845.83
538.68	2067.01
538.88	2263.01
539.09	1825.15
539.29	1942.09
539.49	2297.41
539.69	2210.99
539.90	2058.41
540.10	1859.76
540.30	2325.26
540.50	2044.28
540.70	1832.73
540.91	1913.62
541.11	2241.09
541.31	2390.59
541.51	2000.46
541.72	2017.25
541.92	2178.83
542.12	1986.73
542.32	1996.16
542.52	1929.19
542.73	2018.07
542.93	2237.20
543.13	1931.64
543.33	2089.13
543.53	2230.65
543.74	2221.84
543.94	1927.14
544.14	2012.74
544.34	2335.71
544.54	2076.85
544.75	2027.69
544.95	2113.71
545.15	2244.37
545.35	2426.02
545.55	2075.62
545.75	1965.23
545.96	2531.70
546.16	2004.35
546.36	1965.64
546.56	1986.94
546.76	2352.30
546.97	2427.25
547.17	1994.31
547.37	2095.48
547.57	2046.13
547.77	2257.07
547.97	2034.25
548.18	2046.54
548.38	2123.33
548.58	2380.15
548.78	1898.06
548.98	1987.35
549.18	2256.66
549.39	2376.05
549.59	2041.01
549.79	2023.19
549.99	2372.57
550.19	2285.94
550.39	2124.36
550.60	2010.70
550.80	2214.67
551.00	2241.30
551.20	1964.62
551.40	1958.47
551.60	2231.06
551.80	2190.10
552.01	2039.78
552.21	1991.44
552.41	2199.52
552.61	2455.51
552.81	2065.79
553.01	1906.45
553.21	2209.76
553.42	1985.51
553.62	1951.51
553.82	1902.56
554.02	2382.61
554.22	2281.03
554.42	1868.98
554.62	2093.23
554.83	2380.76
555.03	2372.57
555.23	1983.46
555.43	2218.77
555.63	2134.80
555.83	2120.88
556.03	2043.05
556.23	1848.29
556.44	2142.18
556.64	2324.03
556.84	1723.98
557.04	1966.05
557.24	2156.10
557.44	2128.25
557.64	2015.00
557.84	1893.76
558.04	2058.21
558.25	2274.68
558.45	1860.37
558.65	2006.60
558.85	2127.63
559.05	1837.85
559.25	1961.13
559.45	2018.07
559.65	2488.08
559.85	2972.01
560.05	1993.29
560.26	2061.08
560.46	2063.53
560.66	2012.95
560.86	1957.24
561.06	1890.28
561.26	2365.61
561.46	2221.84
561.66	1970.56
561.86	2107.97
562.06	2007.83
562.26	2100.19
562.47	2042.44
562.67	1876.14
562.87	2223.89
563.07	1875.32
563.27	1997.38
563.47	2008.24
563.67	2050.22
563.87	2259.11
564.07	1897.85
564.27	1947.21
564.47	2137.26
564.67	2182.73
564.87	1934.10
565.08	2049.20
565.28	2004.96
565.48	2210.99
565.68	2031.59
565.88	2100.60
566.08	2498.52
566.28	2157.94
566.48	1871.84
566.68	2003.94
566.88	2088.31
567.08	2310.52
567.28	1996.56
567.48	2016.84
567.68	2186.21
567.88	1904.20
568.08	1994.31
568.28	2117.60
568.48	2106.95
568.68	2329.97
568.89	2052.47
569.09	1873.89
569.29	2249.90
569.49	2282.46
569.69	1903.59
569.89	1925.71
570.09	1870.41
570.29	2031.99
570.49	1877.78
570.69	1926.93
570.89	2286.15
571.09	2497.91
571.29	1882.90
571.49	2118.42
571.69	2208.32
571.89	2229.21
572.09	2004.35
572.29	2039.78
572.49	2286.97
572.69	2244.57
572.89	2033.02
573.09	1735.24
573.29	2102.04
573.49	2120.47
573.69	1966.87
573.89	2034.25
574.09	2029.33
574.29	2354.75
574.49	2029.33
574.69	1888.84
574.89	1953.15
575.09	1955.81
575.29	1880.44
575.49	1985.30
575.69	2198.49
575.89	1926.11
576.09	1975.27
576.29	1985.51
576.49	1942.29
576.69	2061.28
576.89	1924.89
577.09	1995.54
577.29	1914.03
577.49	2456.54
577.69	1949.05
577.89	2122.31
578.09	2112.07
578.29	1876.55
578.49	2004.96
578.69	1889.87
578.89	2316.87
579.09	2151.39
579.29	1905.43
579.49	2111.87
579.69	2052.06
579.89	2431.76
580.09	1788.08
580.29	1826.17
580.49	2033.63
580.69	1970.56
580.89	1952.94
581.09	1955.40
581.29	2050.22
581.49	2098.76
581.69	1896.42
581.89	1905.63
582.09	1985.71
582.28	1985.71
582.48	2069.47
582.68	2126.00
582.88	2381.17
583.08	2060.26
583.28	1977.72
583.48	2002.30
583.68	2006.19
583.88	2124.77
584.08	2005.78
584.28	2009.47
584.48	2483.78
584.68	2241.30
584.88	1979.16
585.08	2191.74
585.28	2296.59
585.48	2352.71
585.68	2085.24
585.87	2130.09
586.07	2239.45
586.27	2108.59
586.47	2058.21
586.67	1970.76
586.87	2133.57
587.07	2086.68
587.27	1864.06
587.47	2053.70
587.67	2422.95
587.87	2572.45
588.07	2049.40
588.27	1919.15
588.46	2268.33
588.66	2253.18
588.86	1971.58
589.06	2020.94
589.26	2265.05
589.46	2248.87
589.66	1914.44
589.86	1874.10
590.06	2045.10
590.26	2178.63
590.46	1937.17
590.66	2026.06
590.85	1960.32
591.05	2149.75
591.25	1880.04
591.45	1962.36
591.65	2202.39
591.85	2097.73
592.05	1916.69
592.25	2026.26
592.45	2293.11
592.64	2042.44
592.84	2011.11
593.04	1914.65
593.24	2556.07
593.44	2034.86
593.64	1987.35
593.84	2077.87
594.04	2071.52
594.24	2396.33
594.43	1990.63
594.63	1992.06
