SpectraSuite Data File
++++++++++++++++++++++++++++++++++++
Date: Thu Mar 30 16:21:48 PDT 2017
User: UCSD _CER
Dark Spectrum Present: No
Reference Spectrum Present: No
Number of Sampled Component Spectra: 1
Spectrometers: USB4C00073
Integration Time (usec): 250000 (USB4C00073)
Spectra Averaged: 10 (USB4C00073)
Boxcar Smoothing: 0 (USB4C00073)
Correct for Electrical Dark: No (USB4C00073)
Strobe/Lamp Enabled: No (USB4C00073)
Correct for Detector Non-linearity: No (USB4C00073)
Correct for Stray Light: No (USB4C00073)
Number of Pixels in Processed Spectrum: 3648
>>>>>Begin Processed Spectral Data<<<<<
345.37	1284.90
345.58	1284.90
345.80	1284.90
346.01	1275.47
346.22	1280.19
346.43	1990.63
346.65	1751.63
346.86	2139.31
347.07	2075.62
347.28	1803.65
347.50	1794.64
347.71	1933.69
347.92	1696.54
348.13	1793.00
348.35	1714.76
348.56	1905.84
348.77	1782.96
348.98	1806.10
349.20	1671.55
349.41	1918.33
349.62	1972.40
349.83	1845.42
350.05	1719.68
350.26	1972.81
350.47	2086.47
350.68	1780.30
350.90	1721.52
351.11	2087.70
351.32	2075.62
351.53	1800.57
351.75	1725.21
351.96	1922.02
352.17	1897.24
352.38	1872.66
352.60	1858.94
352.81	1920.79
353.02	2131.32
353.23	1755.72
353.44	1766.17
353.66	1852.18
353.87	1854.85
354.08	1884.54
354.29	1804.47
354.51	1866.93
354.72	1900.52
354.93	1805.28
355.14	1714.35
355.35	1765.76
355.57	2074.80
355.78	1820.44
355.99	1898.06
356.20	1952.33
356.42	1919.56
356.63	1918.74
356.84	1829.86
357.05	2023.19
357.26	2179.86
357.48	1918.13
357.69	1849.32
357.90	1956.01
358.11	1841.12
358.32	1814.50
358.54	1844.81
358.75	1849.32
358.96	1988.58
359.17	1797.09
359.38	1819.42
359.60	1997.79
359.81	1911.78
360.02	1825.76
360.23	1796.89
360.44	1799.75
360.66	2064.56
360.87	1766.78
361.08	1745.28
361.29	1923.04
361.50	1914.65
361.72	1770.88
361.93	1832.73
362.14	1930.42
362.35	1725.62
362.56	1906.66
362.77	1743.03
362.99	1996.36
363.20	1919.77
363.41	1854.23
363.62	1701.86
363.83	2018.48
364.05	2047.35
364.26	1710.46
364.47	1772.72
364.68	2053.29
364.89	1809.59
365.10	1737.70
365.32	1790.13
365.53	1819.01
365.74	1833.75
365.95	1789.92
366.16	1691.62
366.37	1907.07
366.59	1879.01
366.80	1782.76
367.01	1680.15
367.22	2162.25
367.43	2281.44
367.64	1813.68
367.86	1782.96
368.07	1973.83
368.28	2091.18
368.49	1742.41
368.70	1861.40
368.91	1837.03
369.12	1871.84
369.34	1697.15
369.55	1723.16
369.76	1903.38
369.97	1848.70
370.18	1742.21
370.39	1747.12
370.60	1738.52
370.82	1773.75
371.03	1816.96
371.24	1741.59
371.45	2007.83
371.66	1973.01
371.87	1803.24
372.08	1780.91
372.30	1788.29
372.51	2016.84
372.72	1871.64
372.93	1767.81
373.14	2082.99
373.35	1811.22
373.56	1747.53
373.78	1823.10
373.99	2018.68
374.20	2267.10
374.41	1799.14
374.62	1825.76
374.83	2076.23
375.04	1864.06
375.25	1799.14
375.47	1771.49
375.68	1855.46
375.89	2004.14
376.10	1819.21
376.31	1892.32
376.52	1964.21
376.73	1955.61
376.94	1819.83
377.15	1780.09
377.37	1905.63
377.58	1868.36
377.79	1691.83
378.00	1728.69
378.21	1958.68
378.42	1996.16
378.63	1825.97
378.84	1880.85
379.05	2030.77
379.27	1921.81
379.48	1904.41
379.69	1733.20
379.90	2035.89
380.11	1690.80
380.32	1798.12
380.53	1902.77
380.74	2037.73
380.95	1925.71
381.16	1801.80
381.37	1782.96
381.59	2081.35
381.80	2027.69
382.01	1740.36
382.22	1675.44
382.43	1949.46
382.64	1916.49
382.85	1772.93
383.06	1857.71
383.27	2034.45
383.48	1872.66
383.69	1859.97
383.91	1720.50
384.12	1982.43
384.33	1964.00
384.54	1793.61
384.75	1700.43
384.96	2265.26
385.17	1986.32
385.38	1759.61
385.59	1780.71
385.80	2000.46
386.01	2082.17
386.22	1893.55
386.43	1828.22
386.64	2204.43
386.86	1890.48
387.07	1897.24
387.28	1701.66
387.49	1843.38
387.70	2066.20
387.91	1871.02
388.12	1747.12
388.33	1961.75
388.54	1849.11
388.75	1766.78
388.96	1870.21
389.17	1852.39
389.38	1884.54
389.59	1871.64
389.80	1839.49
390.01	1901.95
390.22	1829.25
390.43	1882.70
390.64	1678.31
390.86	1933.49
391.07	2052.68
391.28	1780.09
391.49	1824.74
391.70	1767.19
391.91	1794.43
392.12	1801.19
392.33	1794.02
392.54	1899.08
392.75	1855.05
392.96	1888.64
393.17	1768.63
393.38	2167.98
393.59	2053.29
393.80	1759.61
394.01	1874.30
394.22	1999.64
394.43	2259.52
394.64	1871.84
394.85	1990.63
395.06	1993.29
395.27	1997.79
395.48	1818.80
395.69	1742.82
395.90	1908.30
396.11	1891.09
396.32	1745.07
396.53	1884.13
396.74	1891.30
396.95	2041.01
397.16	1755.93
397.37	1699.40
397.58	2043.67
397.79	1922.02
398.00	1827.40
398.21	1804.47
398.42	1916.69
398.63	2176.38
398.84	1794.23
399.05	1773.95
399.26	2079.30
399.47	1938.20
399.68	1614.21
399.89	1748.35
400.10	1776.82
400.31	1852.18
400.52	1830.27
400.73	1755.72
400.94	1739.34
401.15	1932.67
401.36	1797.91
401.57	1836.41
401.78	2057.59
401.99	2013.97
402.20	1736.47
402.41	1930.82
402.62	2115.96
402.83	1874.92
403.04	1756.95
403.25	1951.51
403.46	1964.62
403.67	2192.96
403.88	1934.92
404.09	1972.81
404.30	2051.25
404.51	1981.61
404.72	1840.51
404.93	1969.94
405.14	1873.07
405.35	1930.21
405.56	1806.92
405.77	1795.66
405.98	1956.22
406.19	1871.43
406.40	1745.28
406.61	1779.07
406.82	1829.25
407.03	2187.23
407.24	1737.09
407.45	1825.56
407.66	1939.22
407.87	2031.38
408.08	1878.60
408.29	1879.01
408.49	1979.77
408.70	1892.73
408.91	1802.42
409.12	1878.60
409.33	1806.72
409.54	2061.69
409.75	1769.04
409.96	1781.53
410.17	2007.62
410.38	1886.18
410.59	1769.65
410.80	1898.06
411.01	1898.88
411.22	1889.66
411.43	1871.23
411.64	1763.30
411.85	1818.39
412.06	1797.71
412.27	1622.40
412.47	1762.48
412.68	1895.60
412.89	1969.53
413.10	1784.60
413.31	1697.97
413.52	2135.21
413.73	2167.57
413.94	1789.52
414.15	1927.55
414.36	1858.53
414.57	1800.37
414.78	1795.86
414.99	2243.34
415.19	2800.39
415.40	2925.73
415.61	3113.32
415.82	2940.88
416.03	2830.09
416.24	2574.71
416.45	2261.16
416.66	1986.32
416.87	1839.49
417.08	2090.77
417.29	1841.94
417.50	1969.53
417.70	2156.31
417.91	2147.91
418.12	2109.61
418.33	2204.23
418.54	2404.32
418.75	2575.53
418.96	2650.28
419.17	2953.99
419.38	3529.26
419.59	3607.29
419.79	3417.65
420.00	3216.74
420.21	3252.38
420.42	2554.64
420.63	2230.03
420.84	2111.87
421.05	1981.41
421.26	1932.26
421.47	1720.70
421.67	2070.70
421.88	1808.97
422.09	1748.56
422.30	1948.23
422.51	1808.97
422.72	2108.79
422.93	1981.82
423.14	1790.33
423.35	1692.44
423.55	1701.04
423.76	1809.99
423.97	1814.30
424.18	1705.96
424.39	1948.85
424.60	2107.77
424.81	1899.90
425.02	2102.85
425.22	2220.20
425.43	2251.33
425.64	2412.10
425.85	2449.17
426.06	2732.60
426.27	2569.79
426.48	2600.10
426.68	2584.13
426.89	2663.59
427.10	2701.48
427.31	2261.98
427.52	1973.22
427.73	2165.73
427.94	2062.92
428.14	1937.58
428.35	1814.50
428.56	2099.78
428.77	2037.32
428.98	1925.71
429.19	2060.26
429.40	2181.50
429.60	2260.55
429.81	2333.05
430.02	2200.95
430.23	2113.91
430.44	2167.77
430.65	1888.02
430.85	1901.95
431.06	1985.30
431.27	1717.22
431.48	1780.91
431.69	1863.24
431.90	1942.70
432.10	1907.07
432.31	1894.78
432.52	1989.60
432.73	2598.26
432.94	2594.16
433.15	2460.63
433.35	2328.34
433.56	2475.58
433.77	2230.85
433.98	2191.74
434.19	2042.85
434.40	2083.40
434.60	2014.79
434.81	1876.55
435.02	1892.12
435.23	1936.35
435.44	1863.24
435.64	1711.08
435.85	1782.35
436.06	1892.73
436.27	1843.38
436.48	1743.03
436.68	1776.20
436.89	2120.26
437.10	2001.48
437.31	1813.48
437.52	1890.89
437.73	1921.20
437.93	1936.35
438.14	1882.29
438.35	1677.49
438.56	1852.59
438.77	1883.93
438.97	1951.51
439.18	1767.60
439.39	2052.88
439.60	1720.29
439.80	1692.44
440.01	1804.67
440.22	1828.22
440.43	1982.84
440.64	1722.55
440.84	1829.25
441.05	1753.68
441.26	2262.60
441.47	1857.51
441.68	1793.41
441.88	1894.78
442.09	1884.95
442.30	1956.01
442.51	1841.94
442.71	1828.22
442.92	1938.20
443.13	1765.96
443.34	1742.00
443.55	1788.08
443.75	1969.53
443.96	1780.50
444.17	1765.76
444.38	2063.74
444.58	1803.85
444.79	1866.93
445.00	1838.05
445.21	1889.87
445.41	1863.65
445.62	1610.93
445.83	1881.06
446.04	1939.43
446.24	1752.86
446.45	1644.11
446.66	1779.68
446.87	1942.91
447.07	1836.21
447.28	1967.89
447.49	1830.68
447.70	2020.12
447.90	2044.28
448.11	1819.21
448.32	1878.19
448.53	2082.99
448.73	2081.56
448.94	1814.30
449.15	1916.69
449.36	1925.09
449.56	1974.65
449.77	1795.66
449.98	1728.90
450.19	1906.25
450.39	2010.08
450.60	2057.59
450.81	2039.57
451.02	2113.91
451.22	2205.87
451.43	1889.05
451.64	1901.13
451.84	1972.19
452.05	2179.04
452.26	1942.50
452.47	1867.75
452.67	1859.97
452.88	2115.96
453.09	1797.50
453.30	1742.21
453.50	2025.24
453.71	2114.73
453.92	1808.56
454.12	1898.88
454.33	1835.59
454.54	1891.91
454.75	1749.37
454.95	1743.03
455.16	1933.90
455.37	1953.56
455.57	1812.25
455.78	1816.75
455.99	1888.02
456.19	1905.02
456.40	1738.73
456.61	1846.24
456.82	1933.90
457.02	1995.13
457.23	1845.02
457.44	1971.17
457.64	1828.02
457.85	1990.83
458.06	1856.28
458.26	2024.62
458.47	1933.08
458.68	2079.92
458.89	1806.92
459.09	2034.66
459.30	2256.45
459.51	1984.69
459.71	1789.92
459.92	1839.69
460.13	2032.20
460.33	2170.23
460.54	1810.40
460.75	1812.66
460.95	1777.23
461.16	1967.89
461.37	1800.98
461.57	1859.15
461.78	1910.35
461.99	1812.04
462.19	2056.37
462.40	1849.32
462.61	2403.70
462.81	2075.62
463.02	1806.72
463.23	1807.74
463.43	2052.88
463.64	1900.11
463.85	2806.54
464.05	1836.00
464.26	2355.57
464.47	2130.09
464.67	2005.99
464.88	1894.37
465.09	1821.46
465.29	1931.85
465.50	1935.74
465.71	1844.20
465.91	1845.02
466.12	1896.62
466.33	1858.53
466.53	1822.49
466.74	2103.06
466.94	1882.49
467.15	1836.21
467.36	1996.56
467.56	1803.85
467.77	1951.30
467.98	1858.12
468.18	1799.14
468.39	1860.99
468.60	2144.22
468.80	1845.63
469.01	1807.33
469.21	1988.17
469.42	2077.05
469.63	1940.04
469.83	1838.87
470.04	2104.08
470.25	2210.58
470.45	1957.45
470.66	1860.58
470.86	1990.83
471.07	1918.13
471.28	1947.21
471.48	1979.36
471.69	1943.52
471.90	2377.28
472.10	1835.80
472.31	1843.17
472.51	1835.18
472.72	1806.10
472.93	1755.93
473.13	1933.90
473.34	1955.40
473.54	1899.90
473.75	1853.21
473.96	2019.71
474.16	1913.83
474.37	2026.87
474.57	1944.14
474.78	1874.51
474.99	2043.87
475.19	2014.59
475.40	1853.82
475.60	1747.12
475.81	2135.62
476.02	1939.22
476.22	1950.49
476.43	2045.51
476.63	1991.24
476.84	2183.75
477.05	1745.89
477.25	1829.04
477.46	2325.47
477.66	1941.88
477.87	1776.00
478.08	1820.23
478.28	2061.28
478.49	1905.23
478.69	1783.99
478.90	1828.02
479.10	2020.73
479.31	2108.79
479.52	1905.84
479.72	1962.16
479.93	2015.41
480.13	1882.90
480.34	1810.40
480.54	1917.10
480.75	1835.59
480.96	2075.00
481.16	1804.87
481.37	1902.56
481.57	2026.06
481.78	1997.79
481.98	2023.80
482.19	1899.08
482.40	2172.49
482.60	2005.99
482.81	1937.58
483.01	1874.51
483.22	2107.36
483.42	2092.20
483.63	1976.70
483.83	1951.30
484.04	1854.64
484.24	2025.85
484.45	1883.52
484.66	1747.94
484.86	1965.85
485.07	1833.75
485.27	1890.89
485.48	1815.52
485.68	2092.20
485.89	1834.16
486.09	1934.72
486.30	1833.75
486.50	1943.93
486.71	1985.92
486.91	2024.83
487.12	2075.00
487.33	2300.89
487.53	2324.44
487.74	2130.71
487.94	2053.09
488.15	2188.66
488.35	2283.89
488.56	2130.50
488.76	2099.37
488.97	2092.41
489.17	2126.41
489.38	1977.31
489.58	1940.04
489.79	2034.86
489.99	2001.68
490.20	1897.85
490.40	1983.05
490.61	2002.30
490.81	1890.07
491.02	1889.87
491.22	1949.05
491.43	2024.62
491.63	1950.90
491.84	2020.32
492.04	1789.52
492.25	1991.24
492.45	1892.73
492.66	1837.85
492.86	1740.57
493.07	1892.32
493.27	2229.01
493.48	1744.46
493.68	1892.73
493.89	1936.97
494.09	2037.11
494.30	1825.35
494.50	2082.17
494.71	2033.43
494.91	1854.23
495.12	1971.99
495.32	2055.55
495.53	2030.77
495.73	1796.89
495.94	1880.04
496.14	1730.53
496.35	2183.54
496.55	1895.60
496.76	1873.28
496.96	1936.76
497.17	1914.85
497.37	2002.91
497.58	1848.09
497.78	1807.33
497.98	1898.06
498.19	1966.05
498.39	1946.18
498.60	1982.84
498.80	1796.07
499.01	2065.38
499.21	1791.15
499.42	1881.47
499.62	1915.67
499.83	2218.36
500.03	1764.53
500.24	1934.10
500.44	2095.89
500.64	2052.27
500.85	1852.39
501.05	1922.63
501.26	1769.24
501.46	2083.19
501.67	1819.01
501.87	1753.06
502.08	1832.73
502.28	1897.03
502.48	1929.19
502.69	2013.15
502.89	1819.62
503.10	1907.68
503.30	1922.02
503.51	1937.58
503.71	1835.59
503.92	2064.35
504.12	2013.36
504.32	1972.81
504.53	2144.02
504.73	2201.16
504.94	2122.92
505.14	2269.15
505.35	2263.01
505.55	2262.80
505.75	2198.08
505.96	2264.44
506.16	2386.91
506.37	2036.30
506.57	1984.89
506.78	2030.97
506.98	2172.69
507.18	1853.21
507.39	1874.30
507.59	1949.26
507.80	1906.25
508.00	2061.69
508.20	2112.48
508.41	1984.28
508.61	2143.20
508.82	2065.38
509.02	2029.95
509.22	1821.87
509.43	1813.89
509.63	1853.62
509.84	1887.82
510.04	1765.96
510.24	2149.14
510.45	2029.54
510.65	1792.79
510.86	1906.66
511.06	1849.93
511.26	2098.35
511.47	2054.52
511.67	1888.02
511.88	2060.67
512.08	2096.71
512.28	1804.47
512.49	1971.37
512.69	1969.12
512.90	1981.20
513.10	1824.33
513.30	1932.26
513.51	1975.88
513.71	2141.97
513.91	1946.18
514.12	1937.79
514.32	2112.07
514.53	2012.54
514.73	2123.74
514.93	2053.29
515.14	2184.57
515.34	2451.01
515.54	2300.28
515.75	2396.74
515.95	2542.96
516.15	2584.95
516.36	2268.33
516.56	2171.05
516.77	1856.48
516.97	2147.70
517.17	1996.56
517.38	2095.28
517.58	2298.44
517.78	2112.07
517.99	2327.93
518.19	2400.83
518.39	2696.56
518.60	2532.93
518.80	2345.74
519.00	2296.80
519.21	2167.37
519.41	2327.72
519.61	1913.01
519.82	2048.58
520.02	2029.33
520.22	2019.71
520.43	1991.24
520.63	2012.74
520.83	1962.98
521.04	1894.78
521.24	2258.91
521.44	2307.45
521.65	2408.21
521.85	2602.97
522.05	2363.15
522.26	2220.82
522.46	2394.89
522.66	2212.42
522.87	1997.18
523.07	2138.28
523.27	1981.82
523.48	2220.41
523.68	2033.84
523.88	2052.88
524.09	2179.45
524.29	2110.43
524.49	1991.04
524.70	2282.87
524.90	2434.01
525.10	2338.58
525.31	2039.16
525.51	1992.67
525.71	2146.07
525.91	2082.17
526.12	1881.47
526.32	1816.75
526.52	1878.19
526.73	1875.73
526.93	1924.27
527.13	1781.53
527.34	1943.11
527.54	1953.35
527.74	1894.78
527.94	1868.16
528.15	1878.40
528.35	2015.00
528.55	2030.97
528.76	1939.84
528.96	1763.51
529.16	2049.61
529.36	2021.96
529.57	1772.52
529.77	2101.01
529.97	1817.16
530.18	1956.63
530.38	1865.90
530.58	1998.00
530.78	1968.92
530.99	1835.80
531.19	2021.96
531.39	1870.00
531.60	1967.69
531.80	1906.04
532.00	2019.71
532.20	1965.23
532.41	1857.10
532.61	1862.63
532.81	1891.09
533.01	1893.55
533.22	1971.17
533.42	1990.63
533.62	1721.93
533.82	2089.75
534.03	1902.15
534.23	1967.48
534.43	1798.94
534.63	1881.67
534.84	1981.00
535.04	1941.06
535.24	1905.43
535.44	2236.18
535.65	1876.55
535.85	1820.64
536.05	1837.23
536.25	1912.80
536.46	1873.48
536.66	2105.11
536.86	1998.20
537.06	2096.30
537.27	2162.25
537.47	2006.39
537.67	1883.93
537.87	2122.51
538.08	1922.02
538.28	1831.09
538.48	1865.90
538.68	1978.75
538.88	2057.39
539.09	1825.76
539.29	1943.93
539.49	2077.87
539.69	1985.71
539.90	1976.09
540.10	1865.90
540.30	2178.42
540.50	1936.76
540.70	1875.53
540.91	2015.20
541.11	2171.87
541.31	2351.68
541.51	2180.06
541.72	2213.04
541.92	2283.28
542.12	2104.90
542.32	2032.20
542.52	1961.54
542.73	1953.15
542.93	2064.56
543.13	1946.59
543.33	2090.98
543.53	2210.17
543.74	2244.98
543.94	2059.64
544.14	2275.91
544.34	2440.97
544.54	2316.87
544.75	2430.73
544.95	2631.84
545.15	2505.69
545.35	2516.75
545.55	2333.25
545.75	2121.08
545.96	2402.88
546.16	1989.60
546.36	2034.04
546.56	2022.78
546.76	2191.94
546.97	2257.68
547.17	1964.21
547.37	2018.68
547.57	1912.60
547.77	2051.66
547.97	1959.70
548.18	1994.72
548.38	2056.78
548.58	2551.97
548.78	2636.35
548.98	3079.74
549.18	3398.81
549.39	3594.80
549.59	3209.78
549.79	2883.95
549.99	2920.81
550.19	2732.81
550.39	2562.01
550.60	2308.27
550.80	2301.10
551.00	2272.63
551.20	2074.39
551.40	1983.87
551.60	2101.01
551.80	2100.60
552.01	2132.14
552.21	2040.80
552.41	2063.74
552.61	2267.10
552.81	2033.84
553.01	1873.28
553.21	2054.11
553.42	1890.28
553.62	1871.23
553.82	1879.42
554.02	2162.86
554.22	2042.03
554.42	1835.59
554.62	2020.32
554.83	2365.81
555.03	2691.03
555.23	2671.98
555.43	3071.75
555.63	3049.22
555.83	2892.96
556.03	2564.06
556.23	2399.81
556.44	2538.46
556.64	2633.48
556.84	2226.76
557.04	2397.15
557.24	2418.04
557.44	2310.52
557.64	2149.14
557.84	2001.89
558.04	2033.84
558.25	2120.26
558.45	1952.12
558.65	2031.58
558.85	2107.56
559.05	1907.27
559.25	2068.24
559.45	2211.40
559.65	2660.31
559.85	3155.10
560.05	2664.82
560.26	2801.62
560.46	2828.86
560.66	2611.36
560.86	2385.06
561.06	2223.89
561.26	2465.34
561.46	2272.43
561.66	2104.49
561.86	2187.23
562.06	2026.87
562.26	2061.49
562.47	2041.62
562.67	1871.43
562.87	2076.03
563.07	1826.58
563.27	2026.26
563.47	2055.75
563.67	1974.65
563.87	2134.80
564.07	2072.75
564.27	2205.05
564.47	2331.41
564.67	2373.60
564.87	2269.97
565.08	2327.72
565.28	2193.37
565.48	2264.23
565.68	2164.50
565.88	2163.88
566.08	2275.50
566.28	2024.83
566.48	1857.92
566.68	1936.15
566.88	1910.35
567.08	2091.18
567.28	1956.42
567.48	1992.26
567.68	2127.23
567.88	1933.28
568.08	2110.23
568.28	2210.78
568.48	2084.83
568.68	2289.83
568.89	2103.47
569.09	1856.48
569.29	2140.13
569.49	2099.37
569.69	1884.13
569.89	1887.00
570.09	1744.46
570.29	1894.58
570.49	1784.19
570.69	1842.56
570.89	2053.50
571.09	2174.74
571.29	1756.54
571.49	2039.37
571.69	1969.94
571.89	1978.54
572.09	1870.82
572.29	1838.26
572.49	2015.00
572.69	1979.36
572.89	1939.22
573.09	1776.00
573.29	2127.23
573.49	2162.86
573.69	2168.59
573.89	2192.96
574.09	2009.26
574.29	2214.47
574.49	1929.60
574.69	1900.72
574.89	1825.56
575.09	1843.38
575.29	1840.71
575.49	1904.61
575.69	1968.30
575.89	1787.88
576.09	1933.08
576.29	1968.51
576.49	1891.09
576.69	1991.24
576.89	1951.10
577.09	2023.60
577.29	1857.51
577.49	2252.97
577.69	1898.26
577.89	2034.25
578.09	1982.64
578.29	1782.55
578.49	1930.62
578.69	1840.10
578.89	2082.37
579.09	1955.40
579.29	1861.81
579.49	2062.10
579.69	1940.45
579.89	2193.58
580.09	1782.76
580.29	1800.98
580.49	1869.80
580.69	1814.09
580.89	1898.67
581.09	1878.81
581.29	1851.36
581.49	1891.09
581.69	1807.54
581.89	1807.54
582.09	1813.48
582.28	1847.68
582.48	2062.71
582.68	2159.99
582.88	2236.18
583.08	2051.66
583.28	2046.54
583.48	2023.19
583.68	1943.73
583.88	1974.04
584.08	1966.66
584.28	1940.45
584.48	2192.15
584.68	2006.19
584.88	1892.32
585.08	2051.66
585.28	2124.77
585.48	2148.93
585.68	2071.52
585.87	2055.75
586.07	2043.87
586.27	1966.66
586.47	2026.67
586.67	1937.17
586.87	1928.78
587.07	1907.68
587.27	1852.39
587.47	2000.66
587.67	2320.14
587.87	2712.53
588.07	2553.61
588.27	2573.89
588.46	2825.79
588.66	2838.28
588.86	2502.21
589.06	2443.64
589.26	2395.92
589.46	2304.37
589.66	2031.79
589.86	1973.83
590.06	2068.65
590.26	2280.82
590.46	2175.97
590.66	2344.72
590.85	2322.19
591.05	2382.20
591.25	2138.90
591.45	2130.71
591.65	2246.62
591.85	2264.03
592.05	2227.17
592.25	2364.18
592.45	2484.80
592.64	2355.16
592.84	2269.15
593.04	2072.54
593.24	2506.30
593.44	2150.37
593.64	2196.86
593.84	2208.32
594.04	2119.24
594.24	2287.99
594.43	1994.11
594.63	2045.92
