SpectraSuite Data File
++++++++++++++++++++++++++++++++++++
Date: Thu Mar 30 14:35:28 PDT 2017
User: UCSD _CER
Dark Spectrum Present: No
Reference Spectrum Present: No
Number of Sampled Component Spectra: 1
Spectrometers: USB4C00073
Integration Time (usec): 380000 (USB4C00073)
Spectra Averaged: 10 (USB4C00073)
Boxcar Smoothing: 0 (USB4C00073)
Correct for Electrical Dark: No (USB4C00073)
Strobe/Lamp Enabled: No (USB4C00073)
Correct for Detector Non-linearity: No (USB4C00073)
Correct for Stray Light: No (USB4C00073)
Number of Pixels in Processed Spectrum: 3648
>>>>>Begin Processed Spectral Data<<<<<
345.37	1237.79
345.58	1237.79
345.80	1237.79
346.01	1231.44
346.22	1276.09
346.43	2047.76
346.65	1934.10
346.86	2481.73
347.07	2434.01
347.28	1858.53
347.50	1845.22
347.71	2188.87
347.92	1884.95
348.13	1822.28
348.35	1850.95
348.56	2182.11
348.77	1963.80
348.98	1850.75
349.20	1684.86
349.41	2188.66
349.62	2314.41
349.83	1968.10
350.05	1839.49
350.26	2249.49
350.47	2410.46
350.68	1859.15
350.90	1769.85
351.11	2416.40
351.32	2418.45
351.53	1909.12
351.75	1823.72
351.96	2205.46
352.17	2156.31
352.38	1926.32
352.60	1910.35
352.81	2203.82
353.02	2485.01
353.23	1826.58
353.44	1862.63
353.66	2046.74
353.87	2127.23
354.08	1920.59
354.29	1852.59
354.51	2041.82
354.72	2087.90
354.93	1811.84
355.14	1808.56
355.35	1904.00
355.57	2325.88
355.78	1852.39
355.99	1938.61
356.20	2150.16
356.42	2129.07
356.63	1936.56
356.84	1839.69
357.05	2294.34
357.26	2560.78
357.48	2014.18
357.69	1890.89
357.90	2219.18
358.11	2100.60
358.32	1867.75
358.54	1904.82
358.75	2082.58
358.96	2307.45
359.17	1829.86
359.38	1873.28
359.60	2267.72
359.81	2122.51
360.02	1853.21
360.23	1806.10
360.44	2043.67
360.66	2341.03
360.87	1819.21
361.08	1807.33
361.29	2226.96
361.50	2181.91
361.72	1820.23
361.93	1939.43
362.14	2164.50
362.35	1889.05
362.56	2023.60
362.77	1740.57
362.99	2277.75
363.20	2157.33
363.41	1944.55
363.62	1709.23
363.83	2270.99
364.05	2346.77
364.26	1810.81
364.47	1802.01
364.68	2331.41
364.89	2012.13
365.10	1763.51
365.32	1885.77
365.53	1991.85
365.74	2046.13
365.95	1842.35
366.16	1725.82
366.37	2131.94
366.59	2127.23
366.80	1849.93
367.01	1750.19
367.22	2502.21
367.43	2673.01
367.64	1924.68
367.86	1878.19
368.07	2231.67
368.28	2366.22
368.49	1765.14
368.70	1890.28
368.91	2102.24
369.12	2142.99
369.34	1759.82
369.55	1754.29
369.76	2168.59
369.97	2085.45
370.18	1761.05
370.39	1819.62
370.60	1915.87
370.82	1969.94
371.03	1887.41
371.24	1839.90
371.45	2301.10
371.66	2256.45
371.87	1819.42
372.08	1852.59
372.30	1968.71
372.51	2331.20
372.72	1985.30
372.93	1843.99
373.14	2448.14
373.35	2025.24
373.56	1796.07
373.78	1862.42
373.99	2324.03
374.20	2667.27
374.41	1831.91
374.62	1864.06
374.83	2423.98
375.04	2083.19
375.25	1889.46
375.47	1898.26
375.68	2070.09
375.89	2292.09
376.10	1891.91
376.31	1915.87
376.52	2220.41
376.73	2224.71
376.94	1901.13
377.15	1805.90
377.37	2165.52
377.58	2115.96
377.79	1734.83
378.00	1795.66
378.21	2220.41
378.42	2260.75
378.63	1893.14
378.84	1939.22
379.05	2345.95
379.27	2157.74
379.48	1962.98
379.69	1815.32
379.90	2384.04
380.11	1856.69
380.32	1858.53
380.53	2017.45
380.74	2423.98
380.95	2167.57
381.16	1903.79
381.37	1892.53
381.59	2416.60
381.80	2334.27
382.01	1838.46
382.22	1775.18
382.43	2265.05
382.64	2147.91
382.85	1781.53
383.06	1912.60
383.27	2268.74
383.48	2105.93
383.69	1889.87
383.91	1813.27
384.12	2272.63
384.33	2238.43
384.54	1901.95
384.75	1793.41
384.96	2736.09
385.17	2349.84
385.38	1888.02
385.59	1853.21
385.80	2315.23
386.01	2429.51
386.22	1974.65
386.43	1888.84
386.64	2599.90
386.86	2150.16
387.07	1972.19
387.28	1811.63
387.49	2102.85
387.70	2426.43
387.91	1991.85
388.12	1875.32
388.33	2267.31
388.54	2069.27
388.75	1829.25
388.96	1945.78
389.17	2056.98
389.38	2146.27
389.59	1934.72
389.80	1959.50
390.01	2132.14
390.22	2099.78
390.43	1959.09
390.64	1772.11
390.86	2267.10
391.07	2361.10
391.28	1875.12
391.49	1918.95
391.70	1952.74
391.91	2030.77
392.12	1854.64
392.33	1930.62
392.54	2162.65
392.75	2131.94
392.96	1939.63
393.17	1841.94
393.38	2574.09
393.59	2346.36
393.80	1787.47
394.01	1890.07
394.22	2129.27
394.43	2466.78
394.64	1748.97
394.85	1952.12
395.06	2110.02
395.27	2184.57
395.48	1848.29
395.69	1771.49
395.90	2104.70
396.11	2147.70
396.32	1855.05
396.53	1947.62
396.74	2124.77
396.95	2369.09
397.16	1860.78
397.37	1731.76
397.58	2310.93
397.79	2153.44
398.00	1917.10
398.21	1875.94
398.42	2224.30
398.63	2549.31
398.84	1842.15
399.05	1841.53
399.26	2388.55
399.47	2237.20
399.68	1709.03
399.89	1793.20
400.10	1946.80
400.31	2081.15
400.52	1926.73
400.73	1834.37
400.94	1933.69
401.15	2207.30
401.36	1894.99
401.57	1915.26
401.78	2357.01
401.99	2330.59
402.20	1806.72
402.41	1982.64
402.62	2426.84
402.83	2122.11
403.04	1829.86
403.25	2039.37
403.46	2218.97
403.67	2415.17
403.88	1865.49
404.09	1822.90
404.30	2022.78
404.51	2037.73
404.72	1800.16
404.93	2019.09
405.14	2027.28
405.35	2156.31
405.56	1883.93
405.77	1807.74
405.98	2206.89
406.19	2127.84
406.40	1805.69
406.61	1829.25
406.82	2064.76
407.03	2610.55
407.24	1778.66
407.45	1897.85
407.66	2240.48
407.87	2341.03
408.08	1950.28
408.29	1951.30
408.49	2263.21
408.70	2129.68
408.91	1838.26
409.12	2002.30
409.33	1986.94
409.54	2377.08
409.75	1803.85
409.96	1900.92
410.17	2312.57
410.38	2140.33
410.59	1810.40
410.80	1972.81
411.01	2114.12
411.22	2104.29
411.43	1936.15
411.64	1831.91
411.85	2012.33
412.06	1982.23
412.27	1675.65
412.47	1845.63
412.68	2146.89
412.89	2222.87
413.10	1855.46
413.31	1767.81
413.52	2547.88
413.73	2508.56
413.94	1837.23
414.15	2012.54
414.36	2043.05
414.57	1978.95
414.78	1795.04
414.99	1814.91
415.19	2271.40
415.40	2171.05
415.61	2024.83
415.82	1977.72
416.03	2279.59
416.24	2247.44
416.45	1893.96
416.66	1776.82
416.87	1924.27
417.08	2241.30
417.29	1806.72
417.50	1915.06
417.70	2237.20
417.91	2215.70
418.12	1933.90
418.33	1855.25
418.54	2246.83
418.75	2364.58
418.96	2038.34
419.17	1978.13
419.38	2440.15
419.59	2325.26
419.79	2024.83
420.00	1963.80
420.21	2642.08
420.42	2183.75
420.63	1855.05
420.84	1918.33
421.05	2148.73
421.26	2165.11
421.47	1789.11
421.67	2243.75
421.88	2007.62
422.09	1967.89
422.30	2092.82
422.51	1893.14
422.72	2500.98
422.93	2335.30
423.14	1918.33
423.35	1771.90
423.55	1889.25
423.76	2043.05
423.97	1876.96
424.18	1769.85
424.39	2118.83
424.60	2304.78
424.81	1880.04
425.02	1969.12
425.22	2119.65
425.43	2117.80
425.64	2073.57
425.85	1938.81
426.06	2528.63
426.27	2338.17
426.48	2027.69
426.68	1983.87
426.89	2327.93
427.10	2490.33
427.31	1932.46
427.52	1843.99
427.73	2302.12
427.94	2236.18
428.14	2044.69
428.35	1927.14
428.56	2404.11
428.77	2306.83
428.98	1916.69
429.19	1902.56
429.40	2097.12
429.60	2127.02
429.81	2006.60
430.02	1905.84
430.23	2148.52
430.44	2300.48
430.65	1819.01
430.85	1878.19
431.06	2240.89
431.27	1888.64
431.48	1870.21
431.69	1914.65
431.90	2181.09
432.10	2205.25
432.31	1930.62
432.52	1853.21
432.73	2590.27
432.94	2411.89
433.15	2038.55
433.35	1855.46
433.56	2390.59
433.77	2187.64
433.98	2105.31
434.19	2008.65
434.40	2342.67
434.60	2330.59
434.81	2123.95
435.02	2021.14
435.23	2217.54
435.44	2094.25
435.64	1822.28
435.85	1834.98
436.06	2124.15
436.27	2086.88
436.48	1799.55
436.68	1851.16
436.89	2513.27
437.10	2321.37
437.31	1939.84
437.52	2077.46
437.73	2263.01
437.93	2250.51
438.14	1975.47
438.35	1764.73
438.56	2092.20
438.77	2151.60
438.97	2050.84
439.18	1874.92
439.39	2366.43
439.60	1972.81
439.80	1857.51
440.01	1904.00
440.22	2078.89
440.43	2284.10
440.64	1852.80
440.84	1948.44
441.05	1964.82
441.26	2658.06
441.47	1970.56
441.68	1911.57
441.88	2213.85
442.09	2195.22
442.30	2152.62
442.51	2182.32
442.71	2262.80
442.92	2313.80
443.13	1969.53
443.34	1897.85
443.55	2027.28
443.75	2264.64
443.96	1860.78
444.17	1807.95
444.38	2361.31
444.58	1999.64
444.79	1995.13
445.00	1936.76
445.21	2118.62
445.41	2108.59
445.62	1738.93
445.83	2018.07
446.04	2181.29
446.24	1942.29
446.45	1744.25
446.66	1889.05
446.87	2233.11
447.07	2071.52
447.28	2115.96
447.49	1928.98
447.70	2307.24
447.90	2380.15
448.11	1953.76
448.32	2039.57
448.53	2405.54
448.73	2376.67
448.94	1873.89
449.15	2057.39
449.36	2171.87
449.56	2232.70
449.77	1887.41
449.98	1796.07
450.19	2078.07
450.39	2099.99
450.60	1973.42
450.81	1994.52
451.02	2126.82
451.22	2432.99
451.43	1873.69
451.64	1897.24
451.84	2076.85
452.05	2356.19
452.26	1924.68
452.47	1934.31
452.67	2097.32
452.88	2394.28
453.09	1807.74
453.30	1813.27
453.50	2309.49
453.71	2498.11
453.92	1956.01
454.12	2124.15
454.33	2162.45
454.54	2211.40
454.75	1919.36
454.95	1921.81
455.16	2218.15
455.37	2305.40
455.57	2015.20
455.78	1921.40
455.99	2132.96
456.19	2172.89
456.40	1847.06
456.61	1919.36
456.82	2154.05
457.02	2305.60
457.23	2019.71
457.44	2187.44
457.64	2173.71
457.85	2334.68
458.06	2019.09
458.26	2113.91
458.47	2156.10
458.68	2349.63
458.89	1883.52
459.09	2064.97
459.30	2534.57
459.51	2173.30
459.71	1774.77
459.92	1862.42
460.13	2312.98
460.33	2576.34
460.54	1982.02
460.75	1979.16
460.95	2002.50
461.16	2259.11
461.37	1911.78
461.57	1899.90
461.78	2193.17
461.99	1958.88
462.19	2171.26
462.40	1873.89
462.61	2538.66
462.81	2340.21
463.02	1871.23
463.23	1906.25
463.43	2300.69
463.64	2067.01
463.85	3199.95
464.05	1868.36
464.26	2737.93
464.47	2403.09
464.67	2085.86
464.88	2060.05
465.09	2072.34
465.29	2273.86
465.50	2109.82
465.71	2060.05
465.91	2119.44
466.12	2179.65
466.33	1987.96
466.53	1878.19
466.74	2416.40
466.94	2104.90
467.15	1982.84
467.36	2101.83
467.56	1988.17
467.77	2201.36
467.98	1940.04
468.18	1916.90
468.39	2056.16
468.60	2481.32
468.80	1923.04
469.01	1872.05
469.21	2233.11
469.42	2392.64
469.63	1956.22
469.83	1878.81
470.04	2293.72
470.25	2445.27
470.45	2032.40
470.66	1940.25
470.86	2223.07
471.07	2086.06
471.28	1977.11
471.48	2007.83
471.69	2119.03
471.90	2894.19
472.10	2054.93
472.31	2026.06
472.51	2197.88
472.72	2179.24
472.93	1957.04
473.13	2119.85
473.34	2284.51
473.54	2217.13
473.75	2028.51
473.96	2155.69
474.16	2148.73
474.37	2246.42
474.57	2029.13
474.78	1867.95
474.99	2206.89
475.19	2175.15
475.40	1953.76
475.60	1912.19
475.81	2542.76
476.02	2244.78
476.22	2121.49
476.43	2174.94
476.63	2197.68
476.84	2428.48
477.05	1872.25
477.25	1916.69
477.46	2699.43
477.66	2203.00
477.87	1891.50
478.08	1912.39
478.28	2303.35
478.49	2093.84
478.69	1921.20
478.90	1934.72
479.10	2263.42
479.31	2463.50
479.52	1993.08
479.72	2056.37
479.93	2304.58
480.13	2125.59
480.34	2002.50
480.54	2044.69
480.75	2054.93
480.96	2374.21
481.16	1895.40
481.37	2041.01
481.57	2335.09
481.78	2275.29
481.98	2158.15
482.19	2056.57
482.40	2507.74
482.60	2279.59
482.81	2068.04
483.01	1843.58
483.22	2321.17
483.42	2327.93
483.63	2039.37
483.83	1961.34
484.04	2081.35
484.24	2311.54
484.45	2111.05
484.66	1897.44
484.86	2236.59
485.07	2062.51
485.27	2004.14
485.48	1892.94
485.68	2379.33
485.89	2022.78
486.09	2058.00
486.30	1927.75
486.50	2187.03
486.71	2152.21
486.91	2027.08
487.12	2164.91
487.33	2708.03
487.53	2794.25
487.74	2443.02
487.94	2301.10
488.15	2404.52
488.35	2368.48
488.56	2056.57
488.76	1946.18
488.97	2164.29
489.17	2289.42
489.38	2047.97
489.58	1958.68
489.79	2261.57
489.99	2220.82
490.20	1965.64
490.40	2063.33
490.61	2271.20
490.81	2078.28
491.02	1996.56
491.22	2002.91
491.43	2299.66
491.63	2151.19
491.84	2096.30
492.04	1855.66
492.25	2268.74
492.45	2131.32
492.66	1919.15
492.86	1856.28
493.07	2126.41
493.27	2519.62
493.48	1833.75
493.68	1903.18
493.89	2136.44
494.09	2286.97
494.30	1976.29
494.50	2179.86
494.71	2238.02
494.91	1890.89
495.12	1976.09
495.32	1996.97
495.53	2148.52
495.73	1958.27
495.94	2112.48
496.14	1909.12
496.35	2617.71
496.55	2225.12
496.76	1981.82
496.96	2024.83
497.17	2170.85
497.37	2235.56
497.58	1931.03
497.78	1859.76
497.98	2118.42
498.19	2113.71
498.39	1921.40
498.60	1962.36
498.80	1858.53
499.01	2270.17
499.21	1839.08
499.42	2028.51
499.62	2136.24
499.83	2543.37
500.03	1829.25
500.24	2091.59
500.44	2412.10
500.64	2351.07
500.85	1911.16
501.05	2088.72
501.26	1903.79
501.46	2379.74
501.67	1902.36
501.87	1847.47
502.08	2010.08
502.28	2115.76
502.48	2020.53
502.69	2049.81
502.89	1916.28
503.10	2021.35
503.30	2012.95
503.51	1992.26
503.71	1949.67
503.92	2261.98
504.12	1993.90
504.32	1880.65
504.53	2281.64
504.73	2227.17
504.94	2084.22
505.14	2166.75
505.35	2275.50
505.55	2224.09
505.75	1946.18
505.96	2141.77
506.16	2504.26
506.37	2067.22
506.57	1894.78
506.78	2051.45
506.98	2333.46
507.18	1918.33
507.39	1861.40
507.59	1934.31
507.80	2031.18
508.00	2158.76
508.20	2146.68
508.41	1961.54
508.61	2367.86
508.82	2299.25
509.02	2099.37
509.22	1890.28
509.43	1965.64
509.63	2053.29
509.84	1970.35
510.04	1828.63
510.24	2420.90
510.45	2273.25
510.65	1876.14
510.86	2029.95
511.06	1982.43
511.26	2285.74
511.47	2132.35
511.67	1906.04
511.88	2233.72
512.08	2351.27
512.28	1875.32
512.49	2040.19
512.69	2191.94
512.90	2175.76
513.10	1939.43
513.30	2021.14
513.51	2253.99
513.71	2442.00
513.91	2044.69
514.12	2016.43
514.32	2314.00
514.53	2041.82
514.73	2024.21
514.93	1949.26
515.14	2148.73
515.34	2348.82
515.54	1917.51
515.75	1994.72
515.95	2261.16
516.15	2399.60
516.36	1989.81
516.56	2007.42
516.77	1788.08
516.97	2252.97
517.17	1966.87
517.38	2077.25
517.58	2397.97
517.78	2096.51
517.99	2043.26
518.19	1940.45
518.39	2354.96
518.60	2033.22
518.80	1851.77
519.00	1997.79
519.21	2092.00
519.41	2454.08
519.61	1884.34
519.82	2062.71
520.02	2167.57
520.22	2133.57
520.43	1914.24
520.63	2040.80
520.83	2067.42
521.04	1885.36
521.24	2065.38
521.44	1985.30
521.65	1989.81
521.85	2247.65
522.05	1919.77
522.26	1901.33
522.46	2487.67
522.66	2286.97
522.87	1971.99
523.07	2146.89
523.27	2089.54
523.48	2385.47
523.68	1979.57
523.88	2043.26
524.09	2344.72
524.29	2193.99
524.49	1826.38
524.70	2036.70
524.90	2369.09
525.10	2220.41
525.31	1867.54
525.51	1850.95
525.71	2296.39
525.91	2250.72
526.12	1953.35
526.32	1877.99
526.52	2085.24
526.73	2045.10
526.93	2038.34
527.13	1867.95
527.34	2134.80
527.54	2120.67
527.74	1986.73
527.94	1870.00
528.15	1986.32
528.35	2162.45
528.55	2088.93
528.76	2019.91
528.96	1893.96
529.16	2305.81
529.36	2069.47
529.57	1870.82
529.77	2371.55
529.97	2016.63
530.18	2077.46
530.38	1946.59
530.58	2248.67
530.78	2126.61
530.99	1957.24
531.19	2055.14
531.39	2051.04
531.60	2156.10
531.80	2024.21
532.00	2135.83
532.20	2181.50
532.41	2045.51
532.61	1924.48
532.81	1944.34
533.01	2095.69
533.22	2227.78
533.42	2106.34
533.62	1826.79
533.82	2371.55
534.03	2103.06
534.23	2091.18
534.43	1923.66
534.63	2047.97
534.84	2183.34
535.04	2085.24
535.24	2012.33
535.44	2623.65
535.65	2092.20
535.85	1959.09
536.05	1922.84
536.25	2160.61
536.46	1984.89
536.66	2106.75
536.86	2023.39
537.06	2273.65
537.27	2351.27
537.47	2005.37
537.67	1970.97
537.87	2423.36
538.08	2129.48
538.28	1876.55
538.48	1865.29
538.68	2097.32
538.88	2272.22
539.09	1844.40
539.29	1985.10
539.49	2309.49
539.69	2217.34
539.90	2052.47
540.10	1891.50
540.30	2366.22
540.50	2073.16
540.70	1842.35
540.91	1923.66
541.11	2308.68
541.31	2418.04
541.51	2033.22
541.72	2056.57
541.92	2185.18
542.12	2019.71
542.32	1979.36
542.52	1954.38
542.73	2038.96
542.93	2261.98
543.13	1962.16
543.33	2079.30
543.53	2295.16
543.74	2264.64
543.94	1916.28
544.14	2070.09
544.34	2354.55
544.54	2152.82
544.75	2029.33
544.95	2147.50
545.15	2267.51
545.35	2409.84
545.55	2100.60
545.75	1998.41
545.96	2542.76
546.16	2035.48
546.36	1982.02
546.56	2034.45
546.76	2331.00
546.97	2465.96
547.17	2010.90
547.37	2095.28
547.57	2075.41
547.77	2293.52
547.97	2081.56
548.18	2059.03
548.38	2137.87
548.58	2376.67
548.78	1898.06
548.98	1969.33
549.18	2257.48
549.39	2394.28
549.59	2045.72
549.79	2005.17
549.99	2383.84
550.19	2291.68
550.39	2138.49
550.60	2017.04
550.80	2203.82
551.00	2222.66
551.20	1970.76
551.40	1983.46
551.60	2233.51
551.80	2210.58
552.01	2074.39
552.21	1994.31
552.41	2175.35
552.61	2472.92
552.81	2087.08
553.01	1924.89
553.21	2238.23
553.42	1980.39
553.62	1973.22
553.82	1917.10
554.02	2389.57
554.22	2302.53
554.42	1916.69
554.62	2097.12
554.83	2393.46
555.03	2387.52
555.23	1979.98
555.43	2214.88
555.63	2169.82
555.83	2147.50
556.03	2085.65
556.23	1852.80
556.44	2165.52
556.64	2340.42
556.84	1746.30
557.04	1989.40
557.24	2181.50
557.44	2165.93
557.64	2048.17
557.84	1926.73
558.04	2077.66
558.25	2284.51
558.45	1892.12
558.65	2022.16
558.85	2164.09
559.05	1850.13
559.25	1990.01
559.45	2055.55
559.65	2507.74
559.85	3004.17
560.05	2018.27
560.26	2028.72
560.46	2129.27
560.66	2032.81
560.86	1961.34
561.06	1923.04
561.26	2401.04
561.46	2265.26
561.66	1983.66
561.86	2107.16
562.06	2015.61
562.26	2124.77
562.47	2028.72
562.67	1878.40
562.87	2309.08
563.07	1906.25
563.27	2033.63
563.47	2000.87
563.67	2108.18
563.87	2253.18
564.07	1926.73
564.27	1966.87
564.47	2148.32
564.67	2187.03
564.87	1956.22
565.08	2039.16
565.28	2053.09
565.48	2237.61
565.68	2060.46
565.88	2124.77
566.08	2513.06
566.28	2143.40
566.48	1873.89
566.68	2002.71
566.88	2128.04
567.08	2302.94
567.28	2057.39
567.48	2025.24
567.68	2235.56
567.88	1942.50
568.08	2021.14
568.28	2130.50
568.48	2122.31
568.68	2338.78
568.89	2025.03
569.09	1857.92
569.29	2293.32
569.49	2298.64
569.69	1924.48
569.89	1915.47
570.09	1857.71
570.29	2024.21
570.49	1877.17
570.69	1997.79
570.89	2295.36
571.09	2486.85
571.29	1872.46
571.49	2160.81
571.69	2256.66
571.89	2254.61
572.09	1994.11
572.29	2063.94
572.49	2326.08
572.69	2288.20
572.89	2032.61
573.09	1734.83
573.29	2125.79
573.49	2144.22
573.69	1988.78
573.89	2033.63
574.09	2072.54
574.29	2369.09
574.49	2021.55
574.69	1911.78
574.89	1942.09
575.09	1988.17
575.29	1871.64
575.49	2020.53
575.69	2216.31
575.89	1965.23
576.09	2025.85
576.29	2027.08
576.49	1973.83
576.69	2112.89
576.89	1949.05
577.09	2014.38
577.29	1923.86
577.49	2489.72
577.69	1984.89
577.89	2153.03
578.09	2176.99
578.29	1893.14
578.49	2028.92
578.69	1921.40
578.89	2358.24
579.09	2158.56
579.29	1930.42
579.49	2122.31
579.69	2071.52
579.89	2447.73
580.09	1790.13
580.29	1857.71
580.49	2061.28
580.69	1970.15
580.89	1941.68
581.09	1986.12
581.29	2086.47
581.49	2124.77
581.69	1891.30
581.89	1929.80
582.09	2023.60
582.28	2001.28
582.48	2100.81
582.68	2104.70
582.88	2388.55
583.08	2103.47
583.28	2039.57
583.48	2014.79
583.68	2020.32
583.88	2158.56
584.08	2020.12
584.28	2062.71
584.48	2500.98
584.68	2239.45
584.88	1971.58
585.08	2192.96
585.28	2321.37
585.48	2359.87
585.68	2090.98
585.87	2144.02
586.07	2260.96
586.27	2153.23
586.47	2042.23
586.67	2014.38
586.87	2134.60
587.07	2077.25
587.27	1897.44
587.47	2045.31
587.67	2445.68
587.87	2647.20
588.07	2063.94
588.27	1954.38
588.46	2304.37
588.66	2290.24
588.86	2003.94
589.06	2047.97
589.26	2301.92
589.46	2259.52
589.66	1936.97
589.86	1915.06
590.06	2102.24
590.26	2181.70
590.46	1952.74
590.66	2068.86
590.85	2015.20
591.05	2142.38
591.25	1908.71
591.45	1998.20
591.65	2245.19
591.85	2161.84
592.05	1931.44
592.25	2048.17
592.45	2305.60
592.64	2065.99
592.84	2018.27
593.04	1903.79
593.24	2613.00
593.44	2040.19
593.64	2011.11
593.84	2084.63
594.04	2068.65
594.24	2437.49
594.43	1988.78
594.63	2014.18
