SpectraSuite Data File
++++++++++++++++++++++++++++++++++++
Date: Thu Mar 30 16:01:51 PDT 2017
User: UCSD _CER
Dark Spectrum Present: No
Reference Spectrum Present: No
Number of Sampled Component Spectra: 1
Spectrometers: USB4C00073
Integration Time (usec): 250000 (USB4C00073)
Spectra Averaged: 10 (USB4C00073)
Boxcar Smoothing: 0 (USB4C00073)
Correct for Electrical Dark: No (USB4C00073)
Strobe/Lamp Enabled: No (USB4C00073)
Correct for Detector Non-linearity: No (USB4C00073)
Correct for Stray Light: No (USB4C00073)
Number of Pixels in Processed Spectrum: 3648
>>>>>Begin Processed Spectral Data<<<<<
345.37	1284.90
345.58	1284.90
345.80	1284.90
346.01	1272.40
346.22	1290.63
346.43	1936.35
346.65	1788.70
346.86	2143.20
347.07	2078.69
347.28	1794.23
347.50	1814.91
347.71	1890.07
347.92	1696.54
348.13	1803.85
348.35	1722.75
348.56	1933.28
348.77	1777.02
348.98	1819.62
349.20	1673.19
349.41	1942.91
349.62	2024.62
349.83	1858.94
350.05	1736.47
350.26	1970.97
350.47	2086.06
350.68	1784.40
350.90	1726.85
351.11	2091.39
351.32	2088.52
351.53	1827.20
351.75	1741.59
351.96	1946.80
352.17	1916.49
352.38	1877.17
352.60	1896.21
352.81	1954.38
353.02	2133.78
353.23	1810.81
353.44	1827.20
353.66	1853.21
353.87	1897.03
354.08	1906.86
354.29	1786.85
354.51	1832.52
354.72	1894.78
354.93	1747.12
355.14	1726.64
355.35	1716.61
355.57	2016.84
355.78	1805.08
355.99	1869.18
356.20	1948.85
356.42	1924.27
356.63	1877.99
356.84	1836.00
357.05	2055.75
357.26	2189.69
357.48	1918.33
357.69	1856.89
357.90	1983.46
358.11	1878.40
358.32	1819.42
358.54	1862.63
358.75	1871.02
358.96	2011.72
359.17	1804.67
359.38	1793.00
359.60	1993.08
359.81	1911.37
360.02	1805.69
360.23	1761.87
360.44	1833.14
360.66	2039.98
360.87	1750.40
361.08	1763.71
361.29	1962.16
361.50	1939.84
361.72	1788.29
361.93	1855.25
362.14	1928.37
362.35	1741.39
362.56	1896.62
362.77	1709.85
362.99	1991.65
363.20	1889.66
363.41	1859.15
363.62	1710.05
363.83	1983.25
364.05	2003.53
364.26	1692.85
364.47	1769.85
364.68	2064.97
364.89	1817.98
365.10	1722.55
365.32	1813.48
365.53	1797.91
365.74	1842.97
365.95	1812.45
366.16	1699.61
366.37	1909.32
366.59	1887.41
366.80	1818.39
367.01	1665.20
367.22	2167.77
367.43	2292.50
367.64	1811.84
367.86	1808.97
368.07	1962.57
368.28	2073.57
368.49	1729.30
368.70	1847.68
368.91	1861.60
369.12	1889.05
369.34	1700.22
369.55	1722.96
369.76	1914.24
369.97	1852.39
370.18	1764.33
370.39	1744.25
370.60	1738.52
370.82	1794.84
371.03	1814.09
371.24	1757.77
371.45	1980.59
371.66	1986.94
371.87	1823.10
372.08	1777.84
372.30	1798.94
372.51	2056.57
372.72	1912.19
372.93	1808.56
373.14	2119.65
373.35	1832.73
373.56	1776.41
373.78	1832.11
373.99	2023.19
374.20	2268.13
374.41	1823.10
374.62	1804.47
374.83	2112.68
375.04	1890.48
375.25	1815.11
375.47	1771.70
375.68	1873.07
375.89	1992.67
376.10	1814.91
376.31	1901.54
376.52	1989.81
376.73	1961.13
376.94	1821.26
377.15	1786.24
377.37	1899.08
377.58	1895.40
377.79	1675.03
378.00	1731.35
378.21	1953.35
378.42	1986.32
378.63	1838.05
378.84	1889.66
379.05	2056.57
379.27	1956.63
379.48	1951.10
379.69	1768.63
379.90	2104.08
380.11	1708.62
380.32	1824.54
380.53	1920.99
380.74	2106.34
380.95	1950.28
381.16	1819.83
381.37	1808.97
381.59	2094.25
381.80	2058.62
382.01	1760.84
382.22	1749.37
382.43	1996.77
382.64	1941.27
382.85	1760.64
383.06	1880.85
383.27	1999.43
383.48	1909.12
383.69	1870.00
383.91	1764.33
384.12	2024.01
384.33	2009.26
384.54	1892.73
384.75	1791.36
384.96	2370.32
385.17	2081.76
385.38	1846.45
385.59	1829.25
385.80	2057.18
386.01	2139.51
386.22	1899.08
386.43	1859.56
386.64	2211.40
386.86	1933.08
387.07	1953.76
387.28	1758.18
387.49	1898.06
387.70	2117.39
387.91	1901.95
388.12	1769.65
388.33	2010.08
388.54	1880.24
388.75	1804.26
388.96	1904.61
389.17	1855.25
389.38	1901.54
389.59	1888.84
389.80	1844.20
390.01	1930.21
390.22	1891.30
390.43	1925.30
390.64	1728.49
390.86	1983.87
391.07	2066.20
391.28	1837.44
391.49	1870.00
391.70	1773.34
391.91	1810.20
392.12	1838.87
392.33	1829.25
392.54	1960.32
392.75	1904.82
392.96	1949.05
393.17	1773.75
393.38	2219.18
393.59	2062.10
393.80	1740.36
394.01	1839.28
394.22	1923.25
394.43	2170.85
394.64	1772.93
394.85	1936.76
395.06	1910.75
395.27	1960.11
395.48	1853.62
395.69	1734.63
395.90	1903.79
396.11	1929.19
396.32	1768.83
396.53	1910.14
396.74	1897.03
396.95	2041.82
397.16	1770.26
397.37	1721.93
397.58	2003.73
397.79	1921.61
398.00	1881.88
398.21	1812.86
398.42	1987.55
398.63	2198.29
398.84	1814.50
399.05	1783.58
399.26	2087.49
399.47	1988.99
399.68	1630.18
399.89	1762.48
400.10	1798.73
400.31	1843.99
400.52	1830.47
400.73	1818.19
400.94	1774.97
401.15	2002.50
401.36	1826.17
401.57	1877.99
401.78	2069.68
401.99	2059.03
402.20	1756.34
402.41	1942.09
402.62	2112.89
402.83	1924.27
403.04	1792.38
403.25	1972.40
403.46	1954.79
403.67	2126.20
403.88	1841.74
404.09	1833.14
404.30	1897.85
404.51	1884.54
404.72	1778.87
404.93	1924.48
405.14	1831.09
405.35	1915.67
405.56	1812.25
405.77	1789.52
405.98	1940.04
406.19	1919.15
406.40	1788.08
406.61	1808.77
406.82	1873.48
407.03	2263.42
407.24	1795.25
407.45	1876.55
407.66	1998.61
407.87	2051.25
408.08	1879.83
408.29	1900.31
408.49	1991.65
408.70	1915.67
408.91	1837.23
409.12	1897.24
409.33	1802.01
409.54	2070.50
409.75	1791.97
409.96	1788.08
410.17	2022.37
410.38	1908.30
410.59	1835.80
410.80	1920.38
411.01	1920.59
411.22	1880.44
411.43	1871.43
411.64	1753.06
411.85	1811.02
412.06	1801.60
412.27	1656.19
412.47	1797.50
412.68	1902.15
412.89	2004.96
413.10	1805.49
413.31	1732.58
413.52	2142.58
413.73	2139.72
413.94	1783.17
414.15	1908.50
414.36	1860.78
414.57	1822.28
414.78	1718.86
414.99	1850.95
415.19	2133.98
415.40	2150.78
415.61	2199.72
415.82	2065.79
416.03	2156.72
416.24	2075.82
416.45	1883.52
416.66	1828.22
416.87	1787.26
417.08	1997.18
417.29	1783.37
417.50	1881.67
417.70	2028.92
417.91	1993.08
418.12	1910.55
418.33	1909.12
418.54	2062.51
418.75	2171.46
418.96	2141.56
419.17	2185.80
419.38	2456.74
419.59	2393.26
419.79	2256.86
420.00	2186.62
420.21	2521.87
420.42	2101.63
420.63	1925.09
420.84	1940.45
421.05	1950.90
421.26	1891.91
421.47	1743.23
421.67	2064.56
421.88	1836.00
422.09	1832.52
422.30	2014.18
422.51	1859.76
422.72	2198.08
422.93	2063.94
423.14	1864.06
423.35	1736.88
423.55	1760.84
423.76	1860.37
423.97	1839.28
424.18	1722.55
424.39	1915.87
424.60	2051.25
424.81	1837.85
425.02	1970.97
425.22	2007.01
425.43	2013.77
425.64	2136.03
425.85	2085.86
426.06	2365.61
426.27	2215.49
426.48	2106.95
426.68	2061.69
426.89	2197.47
427.10	2267.31
427.31	1959.50
427.52	1837.64
427.73	2050.22
427.94	1986.32
428.14	1941.47
428.35	1853.41
428.56	2113.09
428.77	2050.43
428.98	1906.25
429.19	1889.25
429.40	1929.80
429.60	1963.39
429.81	2034.66
430.02	1940.86
430.23	1936.35
430.44	2054.93
430.65	1804.06
430.85	1886.59
431.06	1993.90
431.27	1735.24
431.48	1820.85
431.69	1873.69
431.90	1916.49
432.10	1939.02
432.31	1914.24
432.52	1867.13
432.73	2361.51
432.94	2272.63
433.15	2132.96
433.35	1958.06
433.56	2190.51
433.77	2039.37
433.98	2225.32
434.19	2234.13
434.40	2394.49
434.60	2362.13
434.81	2264.44
435.02	2169.62
435.23	2110.23
435.44	2023.39
435.64	1801.39
435.85	1833.34
436.06	1905.02
436.27	1911.98
436.48	1812.25
436.68	1860.78
436.89	2250.51
437.10	2087.49
437.31	1979.16
437.52	2029.74
437.73	2040.39
437.93	2047.56
438.14	1929.80
438.35	1765.14
438.56	1863.45
438.77	1921.40
438.97	1968.30
439.18	1798.12
439.39	2147.91
439.60	1873.28
439.80	1821.67
440.01	1973.42
440.22	1945.57
440.43	2022.57
440.64	1760.43
440.84	1868.77
441.05	1794.43
441.26	2290.04
441.47	1868.77
441.68	1849.93
441.88	2097.32
442.09	2143.20
442.30	2274.47
442.51	2247.65
442.71	2148.11
442.92	2152.01
443.13	1950.49
443.34	1891.30
443.55	1875.53
443.75	2045.92
443.96	1803.85
444.17	1765.14
444.38	2047.97
444.58	1816.34
444.79	1888.84
445.00	1855.25
445.21	1911.98
445.41	1891.50
445.62	1638.58
445.83	1905.63
446.04	1915.87
446.24	1750.19
446.45	1646.16
446.66	1837.03
446.87	1957.65
447.07	1851.77
447.28	2012.54
447.49	1873.48
447.70	2076.44
447.90	2089.54
448.11	1860.99
448.32	1923.66
448.53	2103.26
448.73	2101.83
448.94	1848.91
449.15	1964.00
449.36	1944.34
449.56	1964.21
449.77	1788.08
449.98	1729.71
450.19	1884.34
450.39	1934.92
450.60	1945.57
450.81	1941.06
451.02	1976.29
451.22	2147.70
451.43	1822.69
451.64	1832.11
451.84	1919.56
452.05	2086.06
452.26	1889.66
452.47	1859.15
452.67	1875.53
452.88	2087.29
453.09	1797.50
453.30	1723.57
453.50	2021.35
453.71	2179.24
453.92	1928.78
454.12	2088.11
454.33	1966.25
454.54	2025.85
454.75	1826.38
454.95	1811.43
455.16	1963.59
455.37	2007.01
455.57	1865.49
455.78	1824.13
455.99	1899.29
456.19	1935.13
456.40	1778.66
456.61	1865.49
456.82	1915.67
457.02	2072.34
457.23	1994.31
457.44	2132.14
457.64	2017.66
457.85	2080.53
458.06	1933.90
458.26	2075.82
458.47	1986.73
458.68	2107.16
458.89	1825.35
459.09	2027.28
459.30	2225.12
459.51	1990.22
459.71	1743.03
459.92	1836.62
460.13	2073.57
460.33	2280.62
460.54	1915.67
460.75	1935.13
460.95	1885.97
461.16	2034.45
461.37	1881.26
461.57	1897.44
461.78	1950.08
461.99	1818.60
462.19	2066.40
462.40	1789.92
462.61	2206.89
462.81	2071.32
463.02	1756.34
463.23	1810.61
463.43	2023.80
463.64	1867.75
463.85	2735.47
464.05	1822.08
464.26	2296.80
464.47	2101.42
464.67	1987.76
464.88	1908.09
465.09	1913.21
465.29	2037.52
465.50	2091.39
465.71	1954.17
465.91	1953.15
466.12	1965.85
466.33	1902.97
466.53	1838.87
466.74	2149.14
466.94	1914.44
467.15	1843.99
467.36	2018.68
467.56	1800.78
467.77	1947.21
467.98	1873.48
468.18	1795.25
468.39	1874.30
468.60	2145.86
468.80	1868.57
469.01	1796.48
469.21	1982.43
469.42	2044.08
469.63	1860.99
469.83	1784.60
470.04	2016.43
470.25	2128.66
470.45	1876.76
470.66	1802.83
470.86	1980.18
471.07	1883.93
471.28	1931.64
471.48	1989.81
471.69	1970.35
471.90	2487.46
472.10	1985.30
472.31	2010.29
472.51	2024.01
472.72	2066.40
472.93	1937.99
473.13	2134.39
473.34	2121.70
473.54	2074.80
473.75	1977.72
473.96	2068.24
474.16	1953.15
474.37	1991.85
474.57	1890.07
474.78	1805.69
474.99	1981.61
475.19	1959.09
475.40	1829.25
475.60	1825.15
475.81	2265.67
476.02	2082.58
476.22	2079.71
476.43	2161.43
476.63	2009.47
476.84	2144.84
477.05	1758.59
477.25	1876.76
477.46	2350.25
477.66	1944.34
477.87	1734.42
478.08	1850.54
478.28	2036.50
478.49	1894.37
478.69	1793.20
478.90	1831.50
479.10	1996.77
479.31	2104.90
479.52	1872.46
479.72	2056.78
479.93	2215.90
480.13	2142.79
480.34	2118.83
480.54	2210.78
480.75	2022.98
480.96	2171.87
481.16	1862.63
481.37	1967.48
481.57	2090.36
481.78	2043.87
481.98	2069.47
482.19	1936.35
482.40	2186.00
482.60	1982.02
482.81	1916.49
483.01	1796.68
483.22	2001.89
483.42	2043.67
483.63	1910.75
483.83	1923.86
484.04	1936.35
484.24	2079.10
484.45	2012.74
484.66	1842.56
484.86	2064.35
485.07	1873.28
485.27	1897.65
485.48	1828.63
485.68	2107.56
485.89	1869.39
486.09	1960.73
486.30	1840.71
486.50	1967.69
486.71	1928.78
486.91	1919.56
487.12	2136.85
487.33	2565.08
487.53	2675.88
487.74	2569.38
487.94	2431.55
488.15	2312.36
488.35	2201.98
488.56	2004.35
488.76	1959.50
488.97	2034.45
489.17	2099.78
489.38	1949.26
489.58	1920.99
489.79	2037.52
489.99	1985.71
490.20	1896.62
490.40	1942.91
490.61	1993.90
490.81	1872.05
491.02	1893.76
491.22	1918.74
491.43	2025.44
491.63	1921.61
491.84	1975.06
492.04	1764.12
492.25	2011.31
492.45	1913.83
492.66	1859.97
492.86	1770.67
493.07	1931.44
493.27	2221.64
493.48	1745.07
493.68	1865.49
493.89	1908.91
494.09	2021.14
494.30	1820.03
494.50	2076.64
494.71	2015.61
494.91	1766.99
495.12	1848.70
495.32	1931.64
495.53	1938.81
495.73	1815.32
495.94	1986.32
496.14	1887.41
496.35	2314.20
496.55	2026.47
496.76	1898.06
496.96	1942.09
497.17	1954.17
497.37	1988.17
497.58	1848.70
497.78	1770.67
497.98	1904.00
498.19	1901.33
498.39	1878.19
498.60	1897.85
498.80	1754.70
499.01	2010.49
499.21	1764.94
499.42	1872.66
499.62	1879.83
499.83	2196.86
500.03	1753.06
500.24	1985.92
500.44	2162.45
500.64	2155.08
500.85	1946.80
501.05	2013.77
501.26	1777.43
501.46	2141.56
501.67	1828.63
501.87	1807.74
502.08	1860.78
502.28	1902.15
502.48	1928.16
502.69	1967.89
502.89	1748.76
503.10	1815.11
503.30	1864.47
503.51	1900.31
503.71	1769.85
503.92	2007.01
504.12	1908.91
504.32	1839.69
504.53	2020.73
504.73	2029.33
504.94	2001.68
505.14	2046.13
505.35	2035.68
505.55	2010.29
505.75	1956.83
505.96	2060.87
506.16	2243.55
506.37	1927.55
506.57	1837.03
506.78	1913.21
506.98	2081.15
507.18	1774.56
507.39	1801.19
507.59	1892.94
507.80	1857.10
508.00	1959.09
508.20	2003.53
508.41	1859.76
508.61	2107.36
508.82	2055.14
509.02	1971.58
509.22	1787.26
509.43	1827.40
509.63	1869.80
509.84	1878.81
510.04	1761.05
510.24	2102.04
510.45	2010.49
510.65	1797.30
510.86	1872.05
511.06	1777.43
511.26	2023.60
511.47	1983.87
511.67	1812.66
511.88	1978.95
512.08	2075.00
512.28	1778.25
512.49	1950.69
512.69	1933.90
512.90	1954.79
513.10	1804.06
513.30	1878.19
513.51	2004.14
513.71	2171.67
513.91	1989.19
514.12	1979.57
514.32	2091.18
514.53	1889.66
514.73	1928.78
514.93	1852.59
515.14	1938.40
515.34	2082.37
515.54	1890.28
515.75	1922.63
515.95	1995.54
516.15	2077.66
516.36	1906.25
516.56	1954.58
516.77	1697.15
516.97	2003.53
517.17	1857.10
517.38	1949.67
517.58	2122.72
517.78	1874.10
517.99	1916.69
518.19	1889.46
518.39	2112.89
518.60	1863.65
518.80	1814.91
519.00	1958.88
519.21	1915.67
519.41	2155.28
519.61	1824.33
519.82	1916.08
520.02	1922.63
520.22	1915.67
520.43	1867.34
520.63	1838.67
520.83	1843.58
521.04	1737.29
521.24	1919.77
521.44	1826.58
521.65	1803.24
521.85	1981.00
522.05	1784.60
522.26	1849.52
522.46	2163.47
522.66	2065.38
522.87	1833.55
523.07	1984.89
523.27	1876.14
523.48	2113.09
523.68	1904.82
523.88	1901.13
524.09	2051.25
524.29	1921.81
524.49	1719.47
524.70	1970.15
524.90	2078.89
525.10	1992.47
525.31	1766.58
525.51	1754.49
525.71	2033.63
525.91	1959.29
526.12	1802.62
526.32	1758.39
526.52	1881.47
526.73	1839.90
526.93	1927.55
527.13	1741.80
527.34	1883.72
527.54	1930.62
527.74	1846.24
527.94	1786.03
528.15	1797.30
528.35	1946.59
528.55	1945.37
528.76	1920.59
528.96	1729.71
529.16	2045.72
529.36	1997.18
529.57	1761.66
529.77	2058.82
529.97	1800.78
530.18	1951.10
530.38	1843.38
530.58	1991.65
530.78	1915.87
530.99	1823.51
531.19	1947.41
531.39	1812.66
531.60	1924.27
531.80	1844.61
532.00	2023.39
532.20	1949.05
532.41	1853.62
532.61	1860.78
532.81	1859.56
533.01	1904.61
533.22	1981.20
533.42	2010.08
533.62	1731.76
533.82	2078.28
534.03	1912.80
534.23	1930.21
534.43	1777.84
534.63	1875.53
534.84	1951.51
535.04	1936.35
535.24	1891.50
535.44	2238.43
535.65	1888.84
535.85	1847.88
536.05	1838.26
536.25	1926.52
536.46	1834.78
536.66	2039.16
536.86	1901.95
537.06	1979.16
537.27	2077.25
537.47	1976.90
537.67	1844.20
537.87	2094.25
538.08	1914.44
538.28	1782.96
538.48	1795.86
538.68	1877.17
538.88	2004.35
539.09	1768.22
539.29	1881.06
539.49	2060.26
539.69	1965.03
539.90	1957.45
540.10	1838.05
540.30	2087.70
540.50	1866.31
540.70	1766.37
540.91	1892.73
541.11	2032.40
541.31	2140.95
541.51	1932.26
541.72	1948.85
541.92	1974.24
542.12	1850.13
542.32	1859.35
542.52	1851.98
542.73	1855.87
542.93	2012.54
543.13	1873.48
543.33	1943.52
543.53	2029.95
543.74	1996.97
543.94	1870.21
544.14	1955.20
544.34	2084.42
544.54	1937.17
544.75	1975.47
544.95	2088.93
545.15	2042.03
545.35	2145.45
545.55	2003.12
545.75	1832.32
545.96	2238.63
546.16	1867.75
546.36	1881.88
546.56	1871.84
546.76	2038.34
546.97	2182.93
547.17	1877.78
547.37	1963.59
547.57	1884.75
547.77	2039.57
547.97	1926.93
548.18	1946.18
548.38	1917.51
548.58	2097.12
548.78	1797.09
548.98	1921.20
549.18	2031.79
549.39	2118.83
549.59	1977.31
549.79	1914.24
549.99	2116.17
550.19	2081.15
550.39	1967.28
550.60	1899.90
550.80	1957.86
551.00	2011.31
551.20	1853.21
551.40	1873.89
551.60	1999.02
551.80	1954.99
552.01	2006.19
552.21	1923.86
552.41	1945.16
552.61	2162.86
552.81	1918.95
553.01	1814.71
553.21	1982.64
553.42	1823.51
553.62	1825.76
553.82	1798.53
554.02	2102.24
554.22	2023.60
554.42	1801.19
554.62	1963.39
554.83	2120.67
555.03	2132.75
555.23	1926.32
555.43	2158.15
555.63	2019.91
555.83	1992.67
556.03	1908.50
556.23	1784.60
556.44	1938.61
556.64	2116.78
556.84	1683.43
557.04	1861.40
557.24	1963.80
557.44	1945.16
557.64	1906.25
557.84	1793.20
558.04	1888.23
558.25	2029.54
558.45	1827.20
558.65	1908.30
558.85	1907.89
559.05	1707.80
559.25	1852.80
559.45	1977.93
559.65	2216.52
559.85	2570.20
560.05	1920.18
560.26	1986.73
560.46	1966.87
560.66	1890.28
560.86	1859.56
561.06	1800.78
561.26	2120.06
561.46	1999.43
561.66	1858.74
561.86	1954.17
562.06	1842.97
562.26	1879.63
562.47	1907.07
562.67	1807.13
562.87	1998.20
563.07	1764.33
563.27	1907.68
563.47	1935.33
563.67	1883.72
563.87	2028.10
564.07	1835.59
564.27	1900.31
564.47	1949.46
564.67	2008.44
564.87	1825.35
565.08	1958.27
565.28	1877.58
565.48	1982.64
565.68	1945.16
565.88	1959.91
566.08	2190.92
566.28	1923.86
566.48	1781.12
566.68	1888.64
566.88	1894.17
567.08	2054.93
567.28	1890.89
567.48	1893.14
567.68	1958.88
567.88	1746.92
568.08	1933.28
568.28	2047.15
568.48	1878.19
568.68	2060.26
568.89	1918.74
569.09	1739.14
569.29	2035.07
569.49	2025.65
569.69	1797.50
569.89	1836.82
570.09	1721.32
570.29	1841.33
570.49	1740.36
570.69	1812.66
570.89	2027.08
571.09	2168.39
571.29	1773.54
571.49	2053.09
571.69	1976.09
571.89	1974.24
572.09	1877.58
572.29	1848.09
572.49	1999.43
572.69	2007.83
572.89	1906.25
573.09	1669.71
573.29	1903.79
573.49	1949.05
573.69	1909.53
573.89	1992.26
574.09	1872.05
574.29	2071.11
574.49	1861.40
574.69	1858.33
574.89	1844.61
575.09	1808.56
575.29	1813.68
575.49	1900.92
575.69	1973.63
575.89	1791.97
576.09	1903.18
576.29	1935.13
576.49	1806.72
576.69	1895.60
576.89	1853.62
577.09	1908.30
577.29	1767.60
577.49	2175.56
577.69	1839.08
577.89	1983.66
578.09	1942.70
578.29	1774.56
578.49	1915.87
578.69	1840.71
578.89	2055.34
579.09	1925.71
579.29	1803.65
579.49	2010.70
579.69	1882.49
579.89	2150.57
580.09	1708.62
580.29	1736.06
580.49	1853.00
580.69	1819.42
580.89	1877.58
581.09	1884.95
581.29	1867.75
581.49	1883.11
581.69	1824.13
581.89	1843.79
582.09	1825.97
582.28	1832.52
582.48	1984.89
582.68	2063.74
582.88	2114.32
583.08	1908.09
583.28	1899.90
583.48	1914.03
583.68	1844.40
583.88	1942.91
584.08	1898.67
584.28	1939.02
584.48	2184.77
584.68	2011.11
584.88	1882.90
585.08	2051.25
585.28	2051.66
585.48	2094.46
585.68	1972.60
585.87	1968.10
586.07	2007.21
586.27	1930.21
586.47	1994.93
586.67	1925.71
586.87	1920.18
587.07	1881.67
587.27	1805.28
587.47	1936.15
587.67	2130.09
587.87	2301.30
588.07	2010.08
588.27	1900.92
588.46	2060.67
588.66	2092.41
588.86	1961.75
589.06	1997.59
589.26	2069.06
589.46	2028.31
589.66	1819.42
589.86	1813.48
590.06	1928.37
590.26	1996.36
590.46	1893.96
590.66	2032.81
590.85	1899.70
591.05	1981.41
591.25	1844.61
591.45	1888.02
591.65	2047.15
591.85	1971.58
592.05	1892.32
592.25	1994.31
592.45	2064.56
592.64	1915.47
592.84	1930.42
593.04	1804.67
593.24	2250.72
593.44	1885.36
593.64	1947.00
593.84	1962.57
594.04	1890.68
594.24	2139.10
594.43	1841.33
594.63	1945.98
