SpectraSuite Data File
++++++++++++++++++++++++++++++++++++
Date: Thu Mar 30 14:31:21 PDT 2017
User: UCSD _CER
Dark Spectrum Present: No
Reference Spectrum Present: No
Number of Sampled Component Spectra: 1
Spectrometers: USB4C00073
Integration Time (usec): 380000 (USB4C00073)
Spectra Averaged: 10 (USB4C00073)
Boxcar Smoothing: 0 (USB4C00073)
Correct for Electrical Dark: No (USB4C00073)
Strobe/Lamp Enabled: No (USB4C00073)
Correct for Detector Non-linearity: No (USB4C00073)
Correct for Stray Light: No (USB4C00073)
Number of Pixels in Processed Spectrum: 3648
>>>>>Begin Processed Spectral Data<<<<<
345.37	1224.69
345.58	1224.69
345.80	1224.69
346.01	1251.51
346.22	1244.14
346.43	2053.70
346.65	1944.14
346.86	2466.16
347.07	2365.20
347.28	1860.37
347.50	1830.47
347.71	2154.46
347.92	1865.49
348.13	1849.11
348.35	1811.22
348.56	2158.97
348.77	1938.61
348.98	1851.98
349.20	1666.23
349.41	2153.44
349.62	2306.01
349.83	1918.74
350.05	1832.73
350.26	2212.22
350.47	2398.17
350.68	1835.80
350.90	1754.29
351.11	2421.31
351.32	2379.13
351.53	1876.55
351.75	1814.50
351.96	2203.20
352.17	2132.75
352.38	1917.31
352.60	1904.00
352.81	2182.52
353.02	2441.79
353.23	1807.13
353.44	1839.28
353.66	2093.23
353.87	2099.99
354.08	1910.96
354.29	1819.01
354.51	2022.98
354.72	2071.11
354.93	1802.83
355.14	1828.84
355.35	1875.73
355.57	2286.35
355.78	1858.33
355.99	1888.84
356.20	2135.42
356.42	2096.10
356.63	1916.28
356.84	1831.91
357.05	2312.16
357.26	2524.53
357.48	1948.44
357.69	1880.44
357.90	2205.87
358.11	2081.97
358.32	1845.02
358.54	1896.21
358.75	2074.80
358.96	2273.25
359.17	1838.46
359.38	1859.97
359.60	2234.95
359.81	2119.24
360.02	1851.57
360.23	1805.90
360.44	2013.36
360.66	2317.28
360.87	1794.43
361.08	1817.78
361.29	2194.19
361.50	2184.36
361.72	1832.32
361.93	1918.95
362.14	2148.32
362.35	1888.02
362.56	2025.85
362.77	1722.96
362.99	2257.68
363.20	2151.80
363.41	1914.65
363.62	1723.37
363.83	2249.49
364.05	2336.73
364.26	1807.74
364.47	1797.30
364.68	2350.45
364.89	2020.53
365.10	1726.64
365.32	1857.92
365.53	1997.38
365.74	2028.51
365.95	1848.91
366.16	1722.96
366.37	2114.12
366.59	2090.98
366.80	1845.83
367.01	1740.16
367.22	2500.16
367.43	2648.02
367.64	1925.91
367.86	1859.35
368.07	2206.69
368.28	2363.56
368.49	1752.04
368.70	1890.28
368.91	2085.86
369.12	2131.12
369.34	1746.10
369.55	1746.30
369.76	2130.30
369.97	2075.21
370.18	1750.81
370.39	1810.20
370.60	1935.13
370.82	1974.86
371.03	1854.03
371.24	1795.45
371.45	2275.91
371.66	2243.34
371.87	1840.71
372.08	1864.06
372.30	2001.68
372.51	2334.07
372.72	2000.05
372.93	1828.22
373.14	2449.17
373.35	2052.88
373.56	1798.53
373.78	1843.38
373.99	2287.38
374.20	2647.82
374.41	1807.95
374.62	1830.27
374.83	2414.76
375.04	2075.62
375.25	1861.19
375.47	1859.97
375.68	2056.78
375.89	2276.52
376.10	1868.77
376.31	1924.89
376.52	2214.47
376.73	2205.66
376.94	1884.95
377.15	1825.15
377.37	2149.55
377.58	2075.21
377.79	1764.73
378.00	1802.01
378.21	2186.00
378.42	2250.92
378.63	1907.27
378.84	1921.40
379.05	2325.67
379.27	2181.70
379.48	1957.04
379.69	1835.80
379.90	2346.97
380.11	1820.23
380.32	1843.58
380.53	1980.80
380.74	2390.59
380.95	2136.44
381.16	1919.15
381.37	1885.36
381.59	2361.72
381.80	2288.40
382.01	1817.37
382.22	1754.49
382.43	2221.84
382.64	2116.99
382.85	1764.53
383.06	1904.20
383.27	2225.94
383.48	2069.06
383.69	1870.00
383.91	1785.83
384.12	2260.34
384.33	2265.05
384.54	1922.22
384.75	1816.14
384.96	2719.91
385.17	2324.44
385.38	1873.69
385.59	1845.22
385.80	2271.61
386.01	2388.55
386.22	1957.45
386.43	1848.91
386.64	2556.89
386.86	2105.52
387.07	1942.29
387.28	1763.10
387.49	2045.92
387.70	2381.79
387.91	1972.60
388.12	1852.39
388.33	2243.75
388.54	2059.44
388.75	1798.94
388.96	1914.03
389.17	2041.42
389.38	2085.86
389.59	1918.33
389.80	1952.33
390.01	2126.61
390.22	2079.10
390.43	1968.92
390.64	1746.10
390.86	2220.41
391.07	2324.85
391.28	1839.69
391.49	1899.70
391.70	1927.34
391.91	2026.67
392.12	1892.94
392.33	1951.51
392.54	2172.49
392.75	2148.11
392.96	1970.56
393.17	1825.35
393.38	2560.17
393.59	2316.25
393.80	1785.83
394.01	1876.55
394.22	2102.65
394.43	2447.53
394.64	1787.26
394.85	1956.42
395.06	2139.31
395.27	2153.64
395.48	1853.21
395.69	1753.68
395.90	2137.87
396.11	2148.11
396.32	1840.10
396.53	1947.82
396.74	2084.01
396.95	2332.23
397.16	1819.21
397.37	1734.02
397.58	2280.00
397.79	2149.34
398.00	1880.65
398.21	1874.92
398.42	2190.92
398.63	2533.75
398.84	1846.24
399.05	1830.06
399.26	2365.40
399.47	2208.94
399.68	1736.88
399.89	1809.18
400.10	1957.24
400.31	2064.15
400.52	1904.82
400.73	1847.27
400.94	1887.00
401.15	2215.08
401.36	1886.18
401.57	1884.54
401.78	2351.48
401.99	2321.99
402.20	1799.35
402.41	2012.74
402.62	2395.10
402.83	2104.70
403.04	1817.98
403.25	2052.88
403.46	2193.17
403.67	2380.15
403.88	1855.25
404.09	1812.25
404.30	2037.73
404.51	1998.00
404.72	1778.87
404.93	1994.52
405.14	2005.78
405.35	2123.33
405.56	1884.54
405.77	1805.90
405.98	2187.03
406.19	2121.29
406.40	1782.96
406.61	1862.42
406.82	2059.03
407.03	2587.61
407.24	1812.66
407.45	1894.37
407.66	2203.20
407.87	2320.55
408.08	1941.68
408.29	1956.83
408.49	2227.17
408.70	2152.62
408.91	1836.62
409.12	1992.67
409.33	1998.20
409.54	2365.61
409.75	1811.22
409.96	1857.10
410.17	2293.93
410.38	2140.95
410.59	1819.01
410.80	1968.71
411.01	2134.80
411.22	2113.50
411.43	1949.05
411.64	1829.86
411.85	1987.14
412.06	1954.99
412.27	1638.99
412.47	1792.79
412.68	2111.66
412.89	2230.03
413.10	1882.90
413.31	1771.90
413.52	2458.59
413.73	2519.82
413.94	1802.01
414.15	1988.99
414.36	2017.86
414.57	1978.34
414.78	1772.72
414.99	1773.75
415.19	2200.13
415.40	2116.78
415.61	1932.26
415.82	1907.68
416.03	2237.41
416.24	2196.65
416.45	1851.57
416.66	1781.12
416.87	1906.45
417.08	2247.24
417.29	1770.26
417.50	1916.69
417.70	2213.65
417.91	2203.20
418.12	1908.71
418.33	1832.73
418.54	2178.42
418.75	2308.88
418.96	1980.80
419.17	1899.08
419.38	2332.23
419.59	2198.70
419.79	1942.29
420.00	1870.00
420.21	2656.01
420.42	2175.56
420.63	1806.51
420.84	1918.95
421.05	2142.38
421.26	2151.39
421.47	1776.20
421.67	2243.14
421.88	2016.43
422.09	1992.67
422.30	2113.91
422.51	1886.38
422.72	2488.49
422.93	2279.18
423.14	1929.80
423.35	1748.97
423.55	1897.44
423.76	2012.95
423.97	1867.13
424.18	1738.11
424.39	2079.51
424.60	2293.32
424.81	1856.48
425.02	1950.28
425.22	2081.15
425.43	2083.81
425.64	2039.57
425.85	1904.00
426.06	2502.21
426.27	2317.48
426.48	1977.52
426.68	1943.32
426.89	2271.61
427.10	2429.91
427.31	1893.14
427.52	1830.47
427.73	2244.37
427.94	2228.19
428.14	2058.41
428.35	1939.84
428.56	2434.22
428.77	2303.35
428.98	1919.56
429.19	1891.71
429.40	2064.76
429.60	2094.66
429.81	2006.60
430.02	1916.69
430.23	2135.62
430.44	2276.32
430.65	1841.53
430.85	1859.35
431.06	2230.44
431.27	1913.62
431.48	1874.71
431.69	1914.85
431.90	2134.60
432.10	2159.17
432.31	1962.77
432.52	1839.90
432.73	2599.49
432.94	2420.08
433.15	2024.62
433.35	1836.41
433.56	2346.36
433.77	2199.31
433.98	2124.15
434.19	2040.19
434.40	2347.79
434.60	2359.46
434.81	2155.08
435.02	2053.91
435.23	2235.56
435.44	2092.41
435.64	1798.32
435.85	1817.57
436.06	2113.91
436.27	2034.25
436.48	1821.26
436.68	1868.36
436.89	2477.43
437.10	2359.06
437.31	1969.74
437.52	2094.87
437.73	2265.26
437.93	2220.82
438.14	1999.43
438.35	1772.93
438.56	2091.18
438.77	2103.26
438.97	2046.13
439.18	1862.42
439.39	2341.44
439.60	1959.29
439.80	1874.10
440.01	1896.21
440.22	2074.18
440.43	2268.74
440.64	1845.63
440.84	1902.77
441.05	1956.83
441.26	2624.88
441.47	1973.01
441.68	1923.25
441.88	2222.46
442.09	2271.40
442.30	2244.57
442.51	2270.58
442.71	2324.65
442.92	2354.14
443.13	2010.90
443.34	1916.90
443.55	2043.05
443.75	2287.17
443.96	1871.43
444.17	1822.90
444.38	2295.16
444.58	1987.76
444.79	1994.52
445.00	1943.93
445.21	2132.55
445.41	2090.36
445.62	1718.25
445.83	1992.47
446.04	2152.82
446.24	1913.62
446.45	1721.93
446.66	1886.59
446.87	2214.06
447.07	2051.04
447.28	2121.49
447.49	1891.09
447.70	2282.05
447.90	2310.72
448.11	1936.76
448.32	2013.77
448.53	2413.33
448.73	2384.45
448.94	1873.48
449.15	2051.45
449.36	2150.57
449.56	2222.05
449.77	1876.96
449.98	1783.17
450.19	2068.65
450.39	2063.12
450.60	1958.68
450.81	1968.10
451.02	2122.51
451.22	2407.39
451.43	1803.65
451.64	1869.39
451.84	2048.79
452.05	2334.27
452.26	1896.62
452.47	1929.60
452.67	2085.24
452.88	2413.12
453.09	1793.61
453.30	1830.27
453.50	2284.51
453.71	2483.98
453.92	2017.66
454.12	2190.30
454.33	2209.96
454.54	2243.55
454.75	1973.22
454.95	1918.13
455.16	2199.52
455.37	2302.53
455.57	2009.67
455.78	1905.43
455.99	2143.81
456.19	2129.07
456.40	1841.53
456.61	1930.01
456.82	2134.19
457.02	2321.99
457.23	2095.69
457.44	2246.01
457.64	2249.69
457.85	2363.36
458.06	2058.82
458.26	2121.08
458.47	2198.70
458.68	2328.75
458.89	1883.93
459.09	2055.55
459.30	2532.52
459.51	2140.13
459.71	1785.42
459.92	1862.63
460.13	2296.18
460.33	2533.75
460.54	1972.60
460.75	1969.74
460.95	1990.01
461.16	2224.50
461.37	1943.32
461.57	1916.90
461.78	2138.28
461.99	1930.82
462.19	2152.01
462.40	1841.33
462.61	2527.40
462.81	2322.40
463.02	1852.59
463.23	1858.53
463.43	2257.07
463.64	2054.93
463.85	3153.26
464.05	1875.94
464.26	2682.02
464.47	2359.67
464.67	2073.16
464.88	2067.22
465.09	2110.64
465.29	2309.29
465.50	2161.63
465.71	2086.68
465.91	2171.87
466.12	2170.03
466.33	2008.65
466.53	1879.83
466.74	2401.04
466.94	2119.65
467.15	1961.95
467.36	2091.59
467.56	2000.25
467.77	2185.18
467.98	1954.99
468.18	1921.20
468.39	2020.73
468.60	2447.32
468.80	1922.02
469.01	1828.22
469.21	2239.66
469.42	2372.37
469.63	1911.78
469.83	1845.02
470.04	2227.78
470.25	2385.88
470.45	2044.90
470.66	1892.32
470.86	2195.63
471.07	2070.91
471.28	2016.43
471.48	1979.57
471.69	2168.80
471.90	2916.92
472.10	2131.32
472.31	2120.26
472.51	2278.57
472.72	2287.38
472.93	2026.67
473.13	2130.91
473.34	2328.34
473.54	2236.38
473.75	2032.81
473.96	2155.69
474.16	2145.86
474.37	2223.48
474.57	2012.54
474.78	1870.61
474.99	2222.66
475.19	2160.20
475.40	1938.40
475.60	1961.54
475.81	2618.12
476.02	2341.85
476.22	2241.09
476.43	2318.10
476.63	2262.39
476.84	2436.06
477.05	1862.42
477.25	1906.04
477.46	2700.04
477.66	2211.81
477.87	1897.24
478.08	1928.37
478.28	2334.07
478.49	2122.72
478.69	1911.37
478.90	1913.21
479.10	2222.46
479.31	2437.70
479.52	1995.75
479.72	2053.50
479.93	2280.62
480.13	2111.87
480.34	1961.13
480.54	2044.49
480.75	2057.18
480.96	2366.84
481.16	1891.50
481.37	2017.25
481.57	2315.02
481.78	2198.08
481.98	2150.78
482.19	2028.31
482.40	2456.54
482.60	2246.42
482.81	2054.11
483.01	1810.81
483.22	2343.49
483.42	2282.87
483.63	2008.24
483.83	1950.69
484.04	2080.94
484.24	2326.08
484.45	2095.07
484.66	1901.74
484.86	2283.08
485.07	2043.87
485.27	2013.36
485.48	1899.70
485.68	2405.13
485.89	2023.60
486.09	2052.88
486.30	1901.13
486.50	2169.62
486.71	2127.84
486.91	2029.95
487.12	2243.14
487.33	2885.79
487.53	2966.28
487.74	2634.30
487.94	2517.16
488.15	2516.54
488.35	2429.91
488.56	2078.89
488.76	2017.25
488.97	2184.98
489.17	2333.25
489.38	2065.38
489.58	1981.20
489.79	2295.16
489.99	2220.61
490.20	1931.23
490.40	2068.45
490.61	2239.66
490.81	2047.15
491.02	1986.32
491.22	1983.46
491.43	2277.34
491.63	2135.62
491.84	2093.02
492.04	1859.76
492.25	2230.03
492.45	2088.31
492.66	1907.48
492.86	1827.20
493.07	2095.07
493.27	2537.23
493.48	1795.86
493.68	1885.56
493.89	2127.02
494.09	2281.03
494.30	1957.04
494.50	2154.05
494.71	2224.50
494.91	1887.82
495.12	1940.45
495.32	2026.67
495.53	2159.17
495.73	1987.14
495.94	2179.86
496.14	2008.44
496.35	2722.16
496.55	2268.74
496.76	1995.75
496.96	2045.72
497.17	2143.61
497.37	2256.86
497.58	1948.03
497.78	1865.29
497.98	2103.26
498.19	2106.54
498.39	1928.57
498.60	1977.52
498.80	1839.08
499.01	2258.70
499.21	1845.42
499.42	1998.00
499.62	2090.57
499.83	2516.54
500.03	1842.35
500.24	2029.13
500.44	2377.90
500.64	2344.51
500.85	1956.63
501.05	2031.38
501.26	1881.88
501.46	2342.67
501.67	1887.20
501.87	1872.46
502.08	1992.47
502.28	2062.10
502.48	2022.16
502.69	2045.31
502.89	1894.99
503.10	2011.11
503.30	2030.97
503.51	1982.64
503.71	1895.60
503.92	2246.83
504.12	2017.66
504.32	1866.31
504.53	2233.11
504.73	2240.27
504.94	2071.32
505.14	2159.99
505.35	2245.39
505.55	2222.46
505.75	1967.28
505.96	2122.72
506.16	2503.44
506.37	2036.50
506.57	1892.73
506.78	2028.10
506.98	2321.78
507.18	1919.15
507.39	1844.81
507.59	1917.51
507.80	2054.93
508.00	2153.03
508.20	2132.96
508.41	1943.93
508.61	2380.35
508.82	2291.47
509.02	2073.36
509.22	1888.64
509.43	1973.22
509.63	2039.98
509.84	1979.57
510.04	1818.19
510.24	2401.24
510.45	2250.51
510.65	1873.69
510.86	2009.88
511.06	1972.60
511.26	2271.20
511.47	2106.75
511.67	1896.21
511.88	2202.59
512.08	2333.87
512.28	1853.21
512.49	2002.91
512.69	2160.61
512.90	2157.54
513.10	1927.96
513.30	2000.05
513.51	2232.49
513.71	2408.41
513.91	2019.30
514.12	2047.76
514.32	2312.16
514.53	2048.58
514.73	2021.55
514.93	1974.65
515.14	2120.47
515.34	2355.78
515.54	1896.62
515.75	2035.27
515.95	2225.12
516.15	2374.62
516.36	1974.86
516.56	2010.08
516.77	1781.53
516.97	2209.76
517.17	1975.88
517.38	2057.39
517.58	2376.67
517.78	2039.98
517.99	2035.89
518.19	1952.74
518.39	2290.65
518.60	2018.27
518.80	1840.10
519.00	2008.44
519.21	2086.68
519.41	2432.99
519.61	1866.52
519.82	2058.00
520.02	2172.08
520.22	2109.61
520.43	1900.72
520.63	1983.25
520.83	2029.13
521.04	1859.56
521.24	2014.38
521.44	1970.56
521.65	2014.79
521.85	2210.37
522.05	1900.31
522.26	1908.91
522.46	2469.44
522.66	2261.37
522.87	1991.04
523.07	2128.04
523.27	2067.01
523.48	2376.67
523.68	1968.30
523.88	2032.40
524.09	2350.86
524.29	2164.91
524.49	1813.89
524.70	2036.50
524.90	2400.42
525.10	2201.36
525.31	1844.20
525.51	1863.86
525.71	2262.19
525.91	2212.01
526.12	1937.38
526.32	1847.47
526.52	2061.49
526.73	2014.59
526.93	2017.66
527.13	1828.22
527.34	2096.92
527.54	2136.65
527.74	1975.27
527.94	1856.28
528.15	1947.00
528.35	2141.56
528.55	2056.78
528.76	2027.49
528.96	1842.35
529.16	2306.01
529.36	2064.97
529.57	1881.88
529.77	2336.53
529.97	1948.44
530.18	2036.70
530.38	1949.87
530.58	2214.88
530.78	2151.80
530.99	1931.23
531.19	2013.15
531.39	2018.68
531.60	2131.94
531.80	2013.56
532.00	2128.66
532.20	2166.96
532.41	1995.95
532.61	1911.98
532.81	1882.08
533.01	2052.68
533.22	2195.22
533.42	2101.42
533.62	1817.16
533.82	2362.33
534.03	2080.53
534.23	2065.38
534.43	1887.20
534.63	2045.31
534.84	2171.87
535.04	2078.69
535.24	2005.37
535.44	2580.44
535.65	2067.42
535.85	1932.46
536.05	1888.02
536.25	2129.27
536.46	1958.88
536.66	2113.30
536.86	1999.02
537.06	2242.32
537.27	2345.74
537.47	1986.53
537.67	1938.20
537.87	2391.00
538.08	2112.27
538.28	1851.16
538.48	1825.97
538.68	2083.40
538.88	2244.16
539.09	1802.21
539.29	1953.35
539.49	2300.89
539.69	2166.75
539.90	2049.81
540.10	1895.19
540.30	2371.96
540.50	2035.48
540.70	1833.75
540.91	1910.14
541.11	2279.18
541.31	2391.62
541.51	2011.92
541.72	2048.38
541.92	2167.37
542.12	2022.16
542.32	1977.11
542.52	1907.68
542.73	1984.28
542.93	2213.65
543.13	1936.76
543.33	2071.52
543.53	2265.67
543.74	2241.91
543.94	1923.25
544.14	2041.62
544.34	2296.18
544.54	2129.48
544.75	2034.66
544.95	2153.44
545.15	2252.36
545.35	2392.64
545.55	2085.45
545.75	1959.29
545.96	2500.98
546.16	2005.37
546.36	1960.11
546.56	1999.43
546.76	2341.65
546.97	2419.47
547.17	1990.01
547.37	2090.16
547.57	2055.75
547.77	2263.21
547.97	2057.59
548.18	2026.06
548.38	2108.59
548.58	2335.30
548.78	1920.59
548.98	1971.99
549.18	2249.08
549.39	2373.60
549.59	2019.71
549.79	1982.64
549.99	2391.82
550.19	2273.65
550.39	2143.20
550.60	2013.36
550.80	2187.03
551.00	2238.84
551.20	1980.39
551.40	1958.06
551.60	2220.82
551.80	2186.62
552.01	2051.86
552.21	1993.90
552.41	2190.71
552.61	2463.50
552.81	2062.92
553.01	1920.38
553.21	2228.39
553.42	1987.14
553.62	1952.74
553.82	1875.73
554.02	2419.68
554.22	2289.22
554.42	1884.95
554.62	2118.21
554.83	2413.53
555.03	2372.57
555.23	2003.94
555.43	2205.46
555.63	2153.03
555.83	2120.06
556.03	2064.15
556.23	1858.53
556.44	2162.25
556.64	2327.31
556.84	1716.40
557.04	1964.21
557.24	2140.74
557.44	2133.57
557.64	2032.61
557.84	1892.94
558.04	2087.29
558.25	2240.07
558.45	1874.30
558.65	2009.06
558.85	2146.27
559.05	1839.69
559.25	1985.10
559.45	2004.55
559.65	2497.09
559.85	2957.88
560.05	1976.09
560.26	2053.29
560.46	2076.23
560.66	2012.13
560.86	1948.23
561.06	1901.33
561.26	2378.10
561.46	2214.67
561.66	1966.25
561.86	2110.84
562.06	2002.09
562.26	2134.60
562.47	1992.26
562.67	1883.72
562.87	2240.07
563.07	1902.77
563.27	2010.49
563.47	2012.33
563.67	2067.83
563.87	2242.12
564.07	1899.08
564.27	1950.49
564.47	2135.42
564.67	2159.99
564.87	1940.45
565.08	2002.91
565.28	2009.06
565.48	2201.98
565.68	2042.03
565.88	2120.47
566.08	2512.45
566.28	2124.15
566.48	1859.56
566.68	2014.18
566.88	2114.32
567.08	2285.53
567.28	2028.72
567.48	2007.62
567.68	2194.19
567.88	1925.71
568.08	1972.19
568.28	2130.50
568.48	2124.15
568.68	2333.46
568.89	2049.81
569.09	1878.81
569.29	2280.00
569.49	2253.18
569.69	1889.46
569.89	1926.52
570.09	1832.11
570.29	2011.72
570.49	1868.77
570.69	1961.54
570.89	2297.00
571.09	2510.40
571.29	1879.01
571.49	2133.37
571.69	2195.83
571.89	2217.13
572.09	1973.22
572.29	2012.33
572.49	2258.50
572.69	2256.04
572.89	2028.92
573.09	1699.40
573.29	2105.72
573.49	2168.80
573.69	1963.18
573.89	2042.23
574.09	2035.68
574.29	2320.76
574.49	1997.59
574.69	1910.35
574.89	1920.18
575.09	1975.06
575.29	1851.36
575.49	1976.29
575.69	2177.40
575.89	1914.03
576.09	1990.83
576.29	2002.71
576.49	1967.89
576.69	2113.50
576.89	1958.47
577.09	1987.14
577.29	1873.07
577.49	2442.00
577.69	1926.32
577.89	2104.08
578.09	2118.83
578.29	1867.54
578.49	1997.18
578.69	1893.35
578.89	2297.00
579.09	2125.18
579.29	1916.69
579.49	2106.34
579.69	2047.97
579.89	2441.79
580.09	1754.90
580.29	1821.26
580.49	2019.91
580.69	1944.34
580.89	1911.16
581.09	1954.38
581.29	2042.23
581.49	2126.82
581.69	1885.56
581.89	1924.48
582.09	1954.99
582.28	1974.65
582.48	2056.37
582.68	2103.88
582.88	2360.90
583.08	2091.39
583.28	1974.24
583.48	2009.06
583.68	1982.43
583.88	2106.54
584.08	2008.24
584.28	2024.21
584.48	2481.32
584.68	2211.81
584.88	1970.97
585.08	2162.25
585.28	2285.53
585.48	2354.55
585.68	2060.05
585.87	2116.99
586.07	2188.25
586.27	2110.43
586.47	2037.32
586.67	1970.15
586.87	2128.04
587.07	2030.97
587.27	1886.18
587.47	2037.93
587.67	2412.10
587.87	2617.92
588.07	2041.82
588.27	1920.18
588.46	2258.91
588.66	2283.89
588.86	1946.39
589.06	2034.25
589.26	2245.39
589.46	2252.36
589.66	1902.15
589.86	1861.19
590.06	2081.76
590.26	2182.32
590.46	1942.70
590.66	2028.92
590.85	1970.15
591.05	2125.38
591.25	1874.71
591.45	1962.77
591.65	2201.98
591.85	2110.02
592.05	1907.89
592.25	2013.15
592.45	2274.06
592.64	2060.05
592.84	1995.34
593.04	1914.44
593.24	2568.15
593.44	2033.84
593.64	2013.15
593.84	2045.10
594.04	2034.45
594.24	2420.90
594.43	1969.33
594.63	1999.23
