SpectraSuite Data File
++++++++++++++++++++++++++++++++++++
Date: Thu Mar 30 14:18:45 PDT 2017
User: UCSD _CER
Dark Spectrum Present: No
Reference Spectrum Present: No
Number of Sampled Component Spectra: 1
Spectrometers: USB4C00073
Integration Time (usec): 380000 (USB4C00073)
Spectra Averaged: 10 (USB4C00073)
Boxcar Smoothing: 0 (USB4C00073)
Correct for Electrical Dark: No (USB4C00073)
Strobe/Lamp Enabled: No (USB4C00073)
Correct for Detector Non-linearity: No (USB4C00073)
Correct for Stray Light: No (USB4C00073)
Number of Pixels in Processed Spectrum: 3648
>>>>>Begin Processed Spectral Data<<<<<
345.37	1237.79
345.58	1237.79
345.80	1237.79
346.01	1190.28
346.22	1229.60
346.43	2023.60
346.65	1871.64
346.86	2406.98
347.07	2360.69
347.28	1825.56
347.50	1802.01
347.71	2091.59
347.92	1870.82
348.13	1767.19
348.35	1800.16
348.56	2117.19
348.77	1884.75
348.98	1804.06
349.20	1657.83
349.41	2101.63
349.62	2230.44
349.83	1922.02
350.05	1790.13
350.26	2149.55
350.47	2328.13
350.68	1805.90
350.90	1728.28
351.11	2363.15
351.32	2333.87
351.53	1851.36
351.75	1757.77
351.96	2133.98
352.17	2087.49
352.38	1879.83
352.60	1885.56
352.81	2117.80
353.02	2404.93
353.23	1795.86
353.44	1826.79
353.66	1993.90
353.87	2018.07
354.08	1892.12
354.29	1782.96
354.51	2017.25
354.72	2006.80
354.93	1773.34
355.14	1767.81
355.35	1826.38
355.57	2223.07
355.78	1812.04
355.99	1883.31
356.20	2071.11
356.42	2046.33
356.63	1905.23
356.84	1804.67
357.05	2234.13
357.26	2478.25
357.48	1900.72
357.69	1861.40
357.90	2138.69
358.11	2027.28
358.32	1813.68
358.54	1852.59
358.75	2029.13
358.96	2227.17
359.17	1808.56
359.38	1829.04
359.60	2199.11
359.81	2064.97
360.02	1810.81
360.23	1770.67
360.44	1973.63
360.66	2259.11
360.87	1770.06
361.08	1751.22
361.29	2170.85
361.50	2142.58
361.72	1780.71
361.93	1885.77
362.14	2089.54
362.35	1846.45
362.56	1978.95
362.77	1703.91
362.99	2163.68
363.20	2068.65
363.41	1882.29
363.62	1671.35
363.83	2173.92
364.05	2246.01
364.26	1742.00
364.47	1805.90
364.68	2278.98
364.89	1938.61
365.10	1730.53
365.32	1809.18
365.53	1916.49
365.74	2005.17
365.95	1809.18
366.16	1689.78
366.37	2100.40
366.59	2027.49
366.80	1834.98
367.01	1692.24
367.22	2413.53
367.43	2579.01
367.64	1878.40
367.86	1815.73
368.07	2166.96
368.28	2310.72
368.49	1716.81
368.70	1859.15
368.91	2005.17
369.12	2049.40
369.34	1729.10
369.55	1714.97
369.76	2068.86
369.97	2034.45
370.18	1714.35
370.39	1778.66
370.60	1858.33
370.82	1931.64
371.03	1836.00
371.24	1772.11
371.45	2201.36
371.66	2190.71
371.87	1795.66
372.08	1830.88
372.30	1955.40
372.51	2249.69
372.72	1944.75
372.93	1822.08
373.14	2370.11
373.35	1988.78
373.56	1780.09
373.78	1845.02
373.99	2226.35
374.20	2589.45
374.41	1792.59
374.62	1793.61
374.83	2348.61
375.04	2041.01
375.25	1835.18
375.47	1828.63
375.68	2008.65
375.89	2201.98
376.10	1846.45
376.31	1905.02
376.52	2158.15
376.73	2127.43
376.94	1868.77
377.15	1773.13
377.37	2092.20
377.58	2037.93
377.79	1742.62
378.00	1773.34
378.21	2118.83
378.42	2208.12
378.63	1870.61
378.84	1918.95
379.05	2251.54
379.27	2092.82
379.48	1921.40
379.69	1781.12
379.90	2307.65
380.11	1757.57
380.32	1823.51
380.53	1953.15
380.74	2322.60
380.95	2078.28
381.16	1860.99
381.37	1868.57
381.59	2341.65
381.80	2223.48
382.01	1796.48
382.22	1727.26
382.43	2150.98
382.64	2087.29
382.85	1764.53
383.06	1863.86
383.27	2161.22
383.48	2023.19
383.69	1844.40
383.91	1771.08
384.12	2172.08
384.33	2212.01
384.54	1873.69
384.75	1784.80
384.96	2656.01
385.17	2277.55
385.38	1833.75
385.59	1804.06
385.80	2214.88
386.01	2344.92
386.22	1922.22
386.43	1825.97
386.64	2459.00
386.86	2074.39
387.07	1937.99
387.28	1729.10
387.49	1994.52
387.70	2273.25
387.91	1933.49
388.12	1826.79
388.33	2164.50
388.54	2002.91
388.75	1758.80
388.96	1879.22
389.17	1988.58
389.38	2051.45
389.59	1929.39
389.80	1884.75
390.01	2058.62
390.22	2002.50
390.43	1923.86
390.64	1698.59
390.86	2145.04
391.07	2270.17
391.28	1808.15
391.49	1853.00
391.70	1905.02
391.91	1956.42
392.12	1837.03
392.33	1898.67
392.54	2130.09
392.75	2075.62
392.96	1924.07
393.17	1809.38
393.38	2513.27
393.59	2274.06
393.80	1727.26
394.01	1845.22
394.22	2084.63
394.43	2374.01
394.64	1725.62
394.85	1914.24
395.06	2049.61
395.27	2107.77
395.48	1842.76
395.69	1731.15
395.90	2022.16
396.11	2074.80
396.32	1809.18
396.53	1921.81
396.74	2067.83
396.95	2268.94
397.16	1821.26
397.37	1712.92
397.58	2225.32
397.79	2065.99
398.00	1881.67
398.21	1836.62
398.42	2117.80
398.63	2443.64
398.84	1816.75
399.05	1788.08
399.26	2300.07
399.47	2178.63
399.68	1691.83
399.89	1740.36
400.10	1890.89
400.31	2005.99
400.52	1890.28
400.73	1808.15
400.94	1858.12
401.15	2161.63
401.36	1866.93
401.57	1855.05
401.78	2289.63
401.99	2269.56
402.20	1784.19
402.41	1961.34
402.62	2355.78
402.83	2057.18
403.04	1773.95
403.25	2016.23
403.46	2115.14
403.67	2297.62
403.88	1818.39
404.09	1794.43
404.30	1964.21
404.51	1938.20
404.72	1752.45
404.93	1965.85
405.14	1945.16
405.35	2089.13
405.56	1851.98
405.77	1781.12
405.98	2127.63
406.19	2037.11
406.40	1772.52
406.61	1804.87
406.82	1989.81
407.03	2491.15
407.24	1756.95
407.45	1850.54
407.66	2160.81
407.87	2242.32
408.08	1903.38
408.29	1907.89
408.49	2199.11
408.70	2094.05
408.91	1819.62
409.12	1970.76
409.33	1919.97
409.54	2304.78
409.75	1784.80
409.96	1847.27
410.17	2246.83
410.38	2054.52
410.59	1797.50
410.80	1940.25
411.01	2076.64
411.22	2056.78
411.43	1922.84
411.64	1800.57
411.85	1932.67
412.06	1935.33
412.27	1639.81
412.47	1788.08
412.68	2060.26
412.89	2172.69
413.10	1812.86
413.31	1743.23
413.52	2421.31
413.73	2391.82
413.94	1768.83
414.15	1941.68
414.36	1982.43
414.57	1928.16
414.78	1727.05
414.99	1744.05
415.19	2185.39
415.40	2108.59
415.61	1979.77
415.82	1867.54
416.03	2176.38
416.24	2123.13
416.45	1830.27
416.66	1744.25
416.87	1850.75
417.08	2159.99
417.29	1765.96
417.50	1865.29
417.70	2181.29
417.91	2135.01
418.12	1869.59
418.33	1809.59
418.54	2143.40
418.75	2254.40
418.96	1941.06
419.17	1877.58
419.38	2307.86
419.59	2139.72
419.79	1905.02
420.00	1862.22
420.21	2575.94
420.42	2067.83
420.63	1804.06
420.84	1850.54
421.05	2070.91
421.26	2083.40
421.47	1737.91
421.67	2156.92
421.88	1983.66
422.09	1922.22
422.30	2067.01
422.51	1851.57
422.72	2401.04
422.93	2249.90
423.14	1852.59
423.35	1713.33
423.55	1843.99
423.76	1940.66
423.97	1836.21
424.18	1692.65
424.39	2024.83
424.60	2231.67
424.81	1843.58
425.02	1902.36
425.22	2014.18
425.43	2026.87
425.64	2031.38
425.85	1850.13
426.06	2449.58
426.27	2255.43
426.48	1935.54
426.68	1909.94
426.89	2222.25
427.10	2389.98
427.31	1842.76
427.52	1770.06
427.73	2183.13
427.94	2145.04
428.14	1982.02
428.35	1885.77
428.56	2320.14
428.77	2250.31
428.98	1861.60
429.19	1848.91
429.40	1995.75
429.60	2025.65
429.81	1969.94
430.02	1858.12
430.23	2055.34
430.44	2174.94
430.65	1809.79
430.85	1855.87
431.06	2172.89
431.27	1842.15
431.48	1849.11
431.69	1870.00
431.90	2098.55
432.10	2113.09
432.31	1917.92
432.52	1837.44
432.73	2514.09
432.94	2332.64
433.15	1999.84
433.35	1840.71
433.56	2274.27
433.77	2105.52
433.98	2115.76
434.19	2002.09
434.40	2314.41
434.60	2310.93
434.81	2152.42
435.02	2028.92
435.23	2162.65
435.44	2063.74
435.64	1790.54
435.85	1808.56
436.06	2047.35
436.27	2019.30
436.48	1766.17
436.68	1806.31
436.89	2394.28
437.10	2269.35
437.31	1967.48
437.52	2050.22
437.73	2206.69
437.93	2187.03
438.14	1978.95
438.35	1762.07
438.56	2026.87
438.77	2042.64
438.97	2017.25
439.18	1829.66
439.39	2287.17
439.60	1909.12
439.80	1831.50
440.01	1848.50
440.22	2014.59
440.43	2207.92
440.64	1800.98
440.84	1906.45
441.05	1906.25
441.26	2560.17
441.47	1934.10
441.68	1877.17
441.88	2199.93
442.09	2244.98
442.30	2200.13
442.51	2213.85
442.71	2287.17
442.92	2303.35
443.13	1984.07
443.34	1888.64
443.55	1980.39
443.75	2221.02
443.96	1835.59
444.17	1783.17
444.38	2246.62
444.58	1944.34
444.79	1936.35
445.00	1881.67
445.21	2084.01
445.41	2040.60
445.62	1668.48
445.83	1947.21
446.04	2109.00
446.24	1856.89
446.45	1689.78
446.66	1828.02
446.87	2152.82
447.07	2014.18
447.28	2052.88
447.49	1857.92
447.70	2233.72
447.90	2256.45
448.11	1885.56
448.32	1977.93
448.53	2323.63
448.73	2309.70
448.94	1858.33
449.15	2019.71
449.36	2089.54
449.56	2156.92
449.77	1829.66
449.98	1785.62
450.19	2011.51
450.39	2013.36
450.60	1914.44
450.81	1898.67
451.02	2038.34
451.22	2315.23
451.43	1805.28
451.64	1826.58
451.84	2034.86
452.05	2270.58
452.26	1878.40
452.47	1888.84
452.67	1994.31
452.88	2348.20
453.09	1788.70
453.30	1806.10
453.50	2209.55
453.71	2457.77
453.92	1985.30
454.12	2129.89
454.33	2158.76
454.54	2209.96
454.75	1919.56
454.95	1889.87
455.16	2151.60
455.37	2210.58
455.57	1981.61
455.78	1882.29
455.99	2071.32
456.19	2088.11
456.40	1807.33
456.61	1895.60
456.82	2095.28
457.02	2266.08
457.23	2033.63
457.44	2172.28
457.64	2156.92
457.85	2313.59
458.06	2002.30
458.26	2016.02
458.47	2111.05
458.68	2266.28
458.89	1834.16
459.09	2014.18
459.30	2427.46
459.51	2086.68
459.71	1753.47
459.92	1826.17
460.13	2236.59
460.33	2471.28
460.54	1917.51
460.75	1944.75
460.95	1932.87
461.16	2164.50
461.37	1883.31
461.57	1879.42
461.78	2109.00
461.99	1883.72
462.19	2149.55
462.40	1811.02
462.61	2665.64
462.81	2270.17
463.02	1812.66
463.23	1862.83
463.43	2207.71
463.64	1977.31
463.85	3094.48
464.05	1845.83
464.26	2618.33
464.47	2308.47
464.67	2048.79
464.88	2013.97
465.09	2077.05
465.29	2246.01
465.50	2158.76
465.71	2073.36
465.91	2138.08
466.12	2143.61
466.33	1952.33
466.53	1853.21
466.74	2345.54
466.94	2057.39
467.15	1942.09
467.36	2046.54
467.56	1942.09
467.77	2096.71
467.98	1936.97
468.18	1889.05
468.39	2020.32
468.60	2407.18
468.80	1879.22
469.01	1815.73
469.21	2179.24
469.42	2280.41
469.63	1862.63
469.83	1825.15
470.04	2186.62
470.25	2303.15
470.45	2002.09
470.66	1834.78
470.86	2123.13
471.07	2044.28
471.28	1972.40
471.48	1940.86
471.69	2126.20
471.90	2837.26
472.10	2114.94
472.31	2091.39
472.51	2225.94
472.72	2207.51
472.93	1981.00
473.13	2099.17
473.34	2266.08
473.54	2185.18
473.75	1998.00
473.96	2101.83
474.16	2068.04
474.37	2166.75
474.57	1981.41
474.78	1814.71
474.99	2141.36
475.19	2115.14
475.40	1915.87
475.60	1896.21
475.81	2533.54
476.02	2313.39
476.22	2176.99
476.43	2285.53
476.63	2214.67
476.84	2376.46
477.05	1819.62
477.25	1887.82
477.46	2643.31
477.66	2130.71
477.87	1842.35
478.08	1865.90
478.28	2252.15
478.49	2025.24
478.69	1861.60
478.90	1863.24
479.10	2161.02
479.31	2359.87
479.52	1961.13
479.72	2005.17
479.93	2239.04
480.13	2067.22
480.34	1957.24
480.54	2019.50
480.75	1986.73
480.96	2338.17
481.16	1830.88
481.37	2002.09
481.57	2256.45
481.78	2204.64
481.98	2104.29
482.19	1979.98
482.40	2418.04
482.60	2202.39
482.81	2028.31
483.01	1815.52
483.22	2235.15
483.42	2223.07
483.63	1956.42
483.83	1911.78
484.04	2030.15
484.24	2254.40
484.45	2071.52
484.66	1832.93
484.86	2229.83
485.07	1968.51
485.27	1958.88
485.48	1871.23
485.68	2300.28
485.89	1980.59
486.09	2007.83
486.30	1870.21
486.50	2121.90
486.71	2063.94
486.91	1973.42
487.12	2237.20
487.33	2839.30
487.53	2889.07
487.74	2522.69
487.94	2484.60
488.15	2464.53
488.35	2381.58
488.56	2074.80
488.76	1973.22
488.97	2139.10
489.17	2259.11
489.38	2045.31
489.58	1966.05
489.79	2224.91
489.99	2137.26
490.20	1916.49
490.40	2014.59
490.61	2211.19
490.81	1987.76
491.02	1952.94
491.22	1944.96
491.43	2203.20
491.63	2070.70
491.84	2050.84
492.04	1807.54
492.25	2200.54
492.45	2042.23
492.66	1885.56
492.86	1826.17
493.07	2029.13
493.27	2469.44
493.48	1772.52
493.68	1856.48
493.89	2063.74
494.09	2208.53
494.30	1889.46
494.50	2152.21
494.71	2131.73
494.91	1867.13
495.12	1908.50
495.32	1971.37
495.53	2133.16
495.73	1925.71
495.94	2140.95
496.14	1959.91
496.35	2608.91
496.55	2274.68
496.76	1949.87
496.96	1985.30
497.17	2128.04
497.37	2173.10
497.58	1932.67
497.78	1833.75
497.98	2048.58
498.19	2059.03
498.39	1888.23
498.60	1958.27
498.80	1786.65
499.01	2199.31
499.21	1821.26
499.42	1941.06
499.62	2029.33
499.83	2468.62
500.03	1791.36
500.24	2018.68
500.44	2342.26
500.64	2268.53
500.85	1883.52
501.05	2012.74
501.26	1834.78
501.46	2317.07
501.67	1864.06
501.87	1812.25
502.08	1947.00
502.28	2041.82
502.48	1981.41
502.69	2011.92
502.89	1837.85
503.10	1966.46
503.30	1988.78
503.51	1949.05
503.71	1843.79
503.92	2198.70
504.12	1937.79
504.32	1856.28
504.53	2171.46
504.73	2149.55
504.94	2014.18
505.14	2124.97
505.35	2201.16
505.55	2172.28
505.75	1932.46
505.96	2106.34
506.16	2440.77
506.37	1991.85
506.57	1864.47
506.78	1998.41
506.98	2256.25
507.18	1879.83
507.39	1820.85
507.59	1899.08
507.80	1993.49
508.00	2088.52
508.20	2097.53
508.41	1923.86
508.61	2291.47
508.82	2246.62
509.02	2035.89
509.22	1848.50
509.43	1899.70
509.63	1966.46
509.84	1919.15
510.04	1771.49
510.24	2312.77
510.45	2189.28
510.65	1815.52
510.86	1960.52
511.06	1893.35
511.26	2191.74
511.47	2072.54
511.67	1857.71
511.88	2170.64
512.08	2220.00
512.28	1849.73
512.49	1978.95
512.69	2102.24
512.90	2113.91
513.10	1863.04
513.30	1950.69
513.51	2173.51
513.71	2368.07
513.91	1988.37
514.12	1987.55
514.32	2226.35
514.53	1980.39
514.73	1991.44
514.93	1924.07
515.14	2096.71
515.34	2296.80
515.54	1856.89
515.75	1964.62
515.95	2184.98
516.15	2302.33
516.36	1947.62
516.56	1971.58
516.77	1747.94
516.97	2170.03
517.17	1944.55
517.38	2015.61
517.58	2342.47
517.78	2057.18
517.99	1977.93
518.19	1924.48
518.39	2277.96
518.60	1987.96
518.80	1817.57
519.00	1975.06
519.21	2043.67
519.41	2381.99
519.61	1836.21
519.82	2019.50
520.02	2101.01
520.22	2051.04
520.43	1889.05
520.63	1976.90
520.83	1968.30
521.04	1829.86
521.24	2006.39
521.44	1943.32
521.65	1941.27
521.85	2193.37
522.05	1871.64
522.26	1869.39
522.46	2427.46
522.66	2222.05
522.87	1915.87
523.07	2086.88
523.27	2006.39
523.48	2302.33
523.68	1927.34
523.88	1983.46
524.09	2273.45
524.29	2133.98
524.49	1788.70
524.70	2024.83
524.90	2335.71
525.10	2186.41
525.31	1827.40
525.51	1804.26
525.71	2208.32
525.91	2193.37
526.12	1916.28
526.32	1831.09
526.52	1993.29
526.73	1958.47
526.93	1978.54
527.13	1815.11
527.34	2047.15
527.54	2081.15
527.74	1922.43
527.94	1810.81
528.15	1916.49
528.35	2079.10
528.55	2047.97
528.76	1952.53
528.96	1826.79
529.16	2247.03
529.36	2050.22
529.57	1848.91
529.77	2280.82
529.97	1921.61
530.18	2017.25
530.38	1896.01
530.58	2140.54
530.78	2071.11
530.99	1909.32
531.19	1987.55
531.39	1957.45
531.60	2087.70
531.80	1951.92
532.00	2089.75
532.20	2123.95
532.41	1954.79
532.61	1893.14
532.81	1887.00
533.01	2019.09
533.22	2147.91
533.42	2053.50
533.62	1790.95
533.82	2273.65
534.03	2036.70
534.23	2005.37
534.43	1887.00
534.63	1995.54
534.84	2102.04
535.04	2019.30
535.24	1959.50
535.44	2531.08
535.65	1991.24
535.85	1910.14
536.05	1833.96
536.25	2075.21
536.46	1918.95
536.66	2067.01
536.86	1954.38
537.06	2195.22
537.27	2265.05
537.47	1978.54
537.67	1905.23
537.87	2320.35
538.08	2077.66
538.28	1824.13
538.48	1827.40
538.68	2021.14
538.88	2186.62
539.09	1783.99
539.29	1931.85
539.49	2245.19
539.69	2118.83
539.90	2010.08
540.10	1852.59
540.30	2320.76
540.50	2008.44
540.70	1779.68
540.91	1871.84
541.11	2187.03
541.31	2318.10
541.51	1978.13
541.72	2024.83
541.92	2124.77
542.12	1941.47
542.32	1932.26
542.52	1908.30
542.73	1967.07
542.93	2171.46
543.13	1889.25
543.33	2044.49
543.53	2199.52
543.74	2168.59
543.94	1866.31
544.14	2033.22
544.34	2251.95
544.54	2043.87
544.75	2005.37
544.95	2097.53
545.15	2195.01
545.35	2312.36
545.55	2064.56
545.75	1961.95
545.96	2447.12
546.16	1963.59
546.36	1925.09
546.56	1966.25
546.76	2254.40
546.97	2381.38
547.17	1949.67
547.37	2028.72
547.57	2007.62
547.77	2175.56
547.97	2024.83
548.18	2002.91
548.38	2061.89
548.58	2291.68
548.78	1876.35
548.98	1946.59
549.18	2213.65
549.39	2336.73
549.59	2019.91
549.79	1993.29
549.99	2329.15
550.19	2230.24
550.39	2087.49
550.60	1967.48
550.80	2130.71
551.00	2158.35
551.20	1919.77
551.40	1948.44
551.60	2136.65
551.80	2115.55
552.01	2025.65
552.21	1949.46
552.41	2111.46
552.61	2378.10
552.81	2036.70
553.01	1866.93
553.21	2150.78
553.42	1937.79
553.62	1925.09
553.82	1849.73
554.02	2358.03
554.22	2224.50
554.42	1837.44
554.62	2051.86
554.83	2343.70
555.03	2308.68
555.23	1943.52
555.43	2209.14
555.63	2099.99
555.83	2102.04
556.03	1996.56
556.23	1809.59
556.44	2090.57
556.64	2298.44
556.84	1681.79
557.04	1943.32
557.24	2105.52
557.44	2082.99
557.64	1980.80
557.84	1867.95
558.04	2007.62
558.25	2183.75
558.45	1849.32
558.65	1955.40
558.85	2075.82
559.05	1816.34
559.25	1945.57
559.45	2020.73
559.65	2433.40
559.85	2886.82
560.05	1960.32
560.26	2028.10
560.46	2043.87
560.66	1957.04
560.86	1880.04
561.06	1833.55
561.26	2319.53
561.46	2179.24
561.66	1913.83
561.86	2045.10
562.06	1935.33
562.26	2042.85
562.47	1969.94
562.67	1826.79
562.87	2178.22
563.07	1845.02
563.27	1969.74
563.47	1959.50
563.67	2004.96
563.87	2178.42
564.07	1880.24
564.27	1911.37
564.47	2079.92
564.67	2123.74
564.87	1889.05
565.08	1971.78
565.28	1963.39
565.48	2142.99
565.68	2014.79
565.88	2080.74
566.08	2408.82
566.28	2090.98
566.48	1834.78
566.68	1962.98
566.88	2031.38
567.08	2232.70
567.28	1975.47
567.48	1958.27
567.68	2152.01
567.88	1858.53
568.08	1964.00
568.28	2097.94
568.48	2054.11
568.68	2253.58
568.89	1987.76
569.09	1807.95
569.29	2231.47
569.49	2200.95
569.69	1872.87
569.89	1872.46
570.09	1788.29
570.29	1973.83
570.49	1817.16
570.69	1931.85
570.89	2225.12
571.09	2418.65
571.29	1864.88
571.49	2098.55
571.69	2120.88
571.89	2141.36
572.09	1947.41
572.29	1976.90
572.49	2222.46
572.69	2177.61
572.89	2000.25
573.09	1672.58
573.29	2049.81
573.49	2073.77
573.69	1912.80
573.89	1975.68
574.09	1986.94
574.29	2272.22
574.49	1958.06
574.69	1859.56
574.89	1890.28
575.09	1891.09
575.29	1834.78
575.49	1937.79
575.69	2139.51
575.89	1872.87
576.09	1947.21
576.29	1974.65
576.49	1920.38
576.69	2028.92
576.89	1904.61
577.09	1979.57
577.29	1811.43
577.49	2374.62
577.69	1891.09
577.89	2066.81
578.09	2087.08
578.29	1790.95
578.49	1977.93
578.69	1854.03
578.89	2237.82
579.09	2079.71
579.29	1854.03
579.49	2057.39
579.69	2002.91
579.89	2342.47
580.09	1718.04
580.29	1780.09
580.49	1983.66
580.69	1894.17
580.89	1882.90
581.09	1916.90
581.29	1990.83
581.49	2065.79
581.69	1874.71
581.89	1879.01
582.09	1946.18
582.28	1919.36
582.48	2011.72
582.68	2089.34
582.88	2282.46
583.08	2025.44
583.28	1958.27
583.48	1958.27
583.68	1920.59
583.88	2076.85
584.08	1960.93
584.28	1992.88
584.48	2420.90
584.68	2155.90
584.88	1907.07
585.08	2129.27
585.28	2239.45
585.48	2277.75
585.68	2016.23
585.87	2077.05
586.07	2126.82
586.27	2041.42
586.47	2018.07
586.67	1927.34
586.87	2065.38
587.07	2035.89
587.27	1862.83
587.47	1993.49
587.67	2341.85
587.87	2521.46
588.07	1982.23
588.27	1894.78
588.46	2186.21
588.66	2218.36
588.86	1930.21
589.06	1985.30
589.26	2215.90
589.46	2173.30
589.66	1846.86
589.86	1837.85
590.06	1999.02
590.26	2107.56
590.46	1878.40
590.66	1999.43
590.85	1909.12
591.05	2073.98
591.25	1840.10
591.45	1943.73
591.65	2150.78
591.85	2068.45
592.05	1867.13
592.25	2000.05
592.45	2206.07
592.64	1984.07
592.84	1927.75
593.04	1874.51
593.24	2500.77
593.44	1968.10
593.64	1976.90
593.84	2005.58
594.04	2001.48
594.24	2303.56
594.43	1950.08
594.63	1956.01
