SpectraSuite Data File
++++++++++++++++++++++++++++++++++++
Date: Thu Mar 30 16:17:50 PDT 2017
User: UCSD _CER
Dark Spectrum Present: No
Reference Spectrum Present: No
Number of Sampled Component Spectra: 1
Spectrometers: USB4C00073
Integration Time (usec): 250000 (USB4C00073)
Spectra Averaged: 10 (USB4C00073)
Boxcar Smoothing: 0 (USB4C00073)
Correct for Electrical Dark: No (USB4C00073)
Strobe/Lamp Enabled: No (USB4C00073)
Correct for Detector Non-linearity: No (USB4C00073)
Correct for Stray Light: No (USB4C00073)
Number of Pixels in Processed Spectrum: 3648
>>>>>Begin Processed Spectral Data<<<<<
345.37	1263.39
345.58	1263.39
345.80	1263.39
346.01	1274.45
346.22	1279.37
346.43	1978.54
346.65	1777.02
346.86	2140.54
347.07	2112.27
347.28	1807.13
347.50	1768.01
347.71	1937.58
347.92	1737.29
348.13	1798.32
348.35	1731.76
348.56	1930.82
348.77	1779.07
348.98	1823.10
349.20	1666.23
349.41	1903.18
349.62	1967.89
349.83	1862.63
350.05	1719.27
350.26	1951.10
350.47	2087.29
350.68	1742.00
350.90	1725.41
351.11	2083.40
351.32	2054.32
351.53	1827.81
351.75	1715.79
351.96	1919.36
352.17	1874.92
352.38	1858.12
352.60	1864.68
352.81	1914.85
353.02	2122.31
353.23	1757.36
353.44	1777.02
353.66	1817.98
353.87	1868.77
354.08	1869.59
354.29	1830.47
354.51	1827.40
354.72	1871.84
354.93	1737.09
355.14	1658.45
355.35	1691.01
355.57	1983.87
355.78	1783.58
355.99	1835.39
356.20	1908.30
356.42	1875.73
356.63	1885.97
356.84	1821.26
357.05	1964.82
357.26	2175.35
357.48	1878.81
357.69	1826.58
357.90	1961.34
358.11	1858.53
358.32	1807.33
358.54	1824.94
358.75	1866.93
358.96	1984.07
359.17	1779.68
359.38	1793.82
359.60	1977.11
359.81	1883.72
360.02	1785.21
360.23	1731.35
360.44	1787.67
360.66	2024.01
360.87	1758.18
361.08	1735.24
361.29	1951.71
361.50	1897.24
361.72	1776.41
361.93	1831.29
362.14	1923.04
362.35	1715.99
362.56	1879.63
362.77	1702.89
362.99	1948.03
363.20	1893.55
363.41	1867.13
363.62	1698.38
363.83	1972.60
364.05	2012.95
364.26	1697.97
364.47	1740.16
364.68	2033.43
364.89	1808.15
365.10	1709.85
365.32	1808.15
365.53	1824.74
365.74	1829.04
365.95	1819.42
366.16	1682.61
366.37	1915.47
366.59	1859.15
366.80	1800.37
367.01	1667.87
367.22	2154.67
367.43	2295.98
367.64	1797.30
367.86	1794.43
368.07	1964.00
368.28	2069.27
368.49	1736.27
368.70	1839.49
368.91	1865.90
369.12	1888.84
369.34	1706.57
369.55	1713.54
369.76	1896.21
369.97	1857.30
370.18	1721.73
370.39	1744.25
370.60	1719.88
370.82	1780.71
371.03	1794.02
371.24	1737.70
371.45	1984.28
371.66	1968.51
371.87	1803.03
372.08	1768.42
372.30	1768.01
372.51	2002.50
372.72	1875.94
372.93	1745.89
373.14	2081.97
373.35	1804.06
373.56	1739.75
373.78	1797.30
373.99	2015.20
374.20	2273.65
374.41	1801.19
374.62	1813.27
374.83	2069.88
375.04	1856.28
375.25	1808.56
375.47	1731.15
375.68	1852.80
375.89	1999.64
376.10	1794.84
376.31	1874.10
376.52	1994.52
376.73	1955.61
376.94	1826.99
377.15	1769.65
377.37	1877.17
377.58	1855.66
377.79	1663.57
378.00	1712.92
378.21	1923.66
378.42	1984.28
378.63	1823.72
378.84	1876.96
379.05	1992.67
379.27	1914.03
379.48	1894.17
379.69	1741.18
379.90	2047.76
380.11	1665.20
380.32	1780.71
380.53	1898.26
380.74	2068.65
380.95	1904.82
381.16	1797.71
381.37	1798.73
381.59	2055.34
381.80	2016.84
382.01	1751.63
382.22	1670.12
382.43	1966.87
382.64	1890.48
382.85	1726.64
383.06	1848.29
383.27	1983.87
383.48	1842.97
383.69	1806.72
383.91	1725.82
384.12	1962.16
384.33	1951.71
384.54	1807.33
384.75	1683.84
384.96	2254.40
385.17	1971.99
385.38	1764.53
385.59	1774.36
385.80	1974.04
386.01	2079.30
386.22	1874.71
386.43	1813.27
386.64	2176.79
386.86	1880.65
387.07	1901.74
387.28	1714.35
387.49	1828.63
387.70	2048.58
387.91	1841.12
388.12	1751.01
388.33	1953.97
388.54	1820.23
388.75	1772.31
388.96	1823.51
389.17	1827.61
389.38	1874.71
389.59	1830.47
389.80	1802.01
390.01	1891.30
390.22	1855.05
390.43	1920.38
390.64	1668.07
390.86	1928.57
391.07	2053.29
391.28	1779.68
391.49	1831.91
391.70	1747.74
391.91	1797.09
392.12	1791.36
392.33	1776.41
392.54	1897.65
392.75	1853.82
392.96	1860.17
393.17	1746.92
393.38	2174.33
393.59	2052.68
393.80	1718.66
394.01	1784.80
394.22	1882.08
394.43	2119.44
394.64	1757.98
394.85	1901.95
395.06	1877.37
395.27	1952.74
395.48	1800.57
395.69	1748.15
395.90	1852.39
396.11	1881.06
396.32	1755.93
396.53	1881.88
396.74	1853.00
396.95	2046.54
397.16	1760.84
397.37	1687.53
397.58	2015.61
397.79	1910.75
398.00	1849.52
398.21	1772.11
398.42	1926.52
398.63	2163.88
398.84	1773.13
399.05	1799.14
399.26	2057.59
399.47	1974.24
399.68	1612.16
399.89	1740.36
400.10	1761.46
400.31	1860.58
400.52	1832.32
400.73	1756.75
400.94	1712.10
401.15	1948.23
401.36	1783.99
401.57	1828.63
401.78	2030.97
401.99	1996.77
402.20	1728.69
402.41	1921.81
402.62	2082.17
402.83	1849.32
403.04	1751.83
403.25	1916.49
403.46	1935.13
403.67	2041.01
403.88	1781.12
404.09	1782.76
404.30	1806.10
404.51	1785.21
404.72	1717.84
404.93	1874.71
405.14	1776.61
405.35	1874.71
405.56	1783.37
405.77	1765.76
405.98	1899.90
406.19	1901.74
406.40	1755.72
406.61	1773.54
406.82	1812.86
407.03	2199.31
407.24	1706.57
407.45	1825.56
407.66	1895.19
407.87	1984.07
408.08	1849.11
408.29	1865.49
408.49	1973.63
408.70	1884.75
408.91	1812.66
409.12	1870.21
409.33	1772.93
409.54	2050.22
409.75	1765.35
409.96	1776.00
410.17	2004.96
410.38	1884.54
410.59	1779.89
410.80	1902.15
411.01	1868.98
411.22	1859.15
411.43	1845.42
411.64	1766.17
411.85	1804.67
412.06	1792.38
412.27	1643.70
412.47	1776.41
412.68	1907.68
412.89	1959.70
413.10	1764.53
413.31	1681.18
413.52	2150.78
413.73	2144.63
413.94	1738.93
414.15	1910.35
414.36	1830.27
414.57	1793.00
414.78	1692.65
414.99	1740.16
415.19	1992.47
415.40	1957.45
415.61	1984.69
415.82	1853.00
416.03	2025.24
416.24	1991.24
416.45	1790.33
416.66	1746.92
416.87	1737.91
417.08	1994.11
417.29	1750.60
417.50	1822.28
417.70	1970.76
417.91	1937.99
418.12	1808.97
418.33	1817.57
418.54	1957.04
418.75	2079.30
418.96	2010.49
419.17	1902.56
419.38	2169.82
419.59	2088.52
419.79	1949.46
420.00	1888.23
420.21	2319.53
420.42	1944.34
420.63	1807.13
420.84	1890.89
421.05	1900.31
421.26	1916.08
421.47	1756.13
421.67	2056.98
421.88	1806.92
422.09	1736.68
422.30	1928.78
422.51	1819.62
422.72	2067.42
422.93	1992.06
423.14	1799.96
423.35	1680.77
423.55	1694.49
423.76	1811.43
423.97	1796.89
424.18	1684.25
424.39	1868.16
424.60	1995.95
424.81	1806.31
425.02	1927.14
425.22	1916.28
425.43	1916.90
425.64	2031.99
425.85	1873.69
426.06	2207.92
426.27	2042.03
426.48	1917.51
426.68	1880.44
426.89	2014.38
427.10	2157.54
427.31	1825.76
427.52	1767.19
427.73	1972.40
427.94	1913.62
428.14	1865.49
428.35	1784.19
428.56	2059.44
428.77	2009.26
428.98	1858.74
429.19	1833.55
429.40	1854.44
429.60	1890.48
429.81	1917.51
430.02	1852.80
430.23	1902.15
430.44	1979.98
430.65	1762.07
430.85	1830.88
431.06	1966.46
431.27	1715.17
431.48	1798.94
431.69	1848.91
431.90	1888.23
432.10	1899.70
432.31	1844.40
432.52	1727.87
432.73	2171.26
432.94	2069.68
433.15	1925.09
433.35	1787.67
433.56	2056.57
433.77	1887.82
433.98	1926.52
434.19	1788.49
434.40	1909.12
434.60	1891.30
434.81	1800.57
435.02	1864.68
435.23	1893.14
435.44	1802.01
435.64	1677.08
435.85	1742.21
436.06	1850.54
436.27	1822.49
436.48	1694.49
436.68	1759.41
436.89	2105.72
437.10	1984.69
437.31	1798.12
437.52	1869.80
437.73	1914.24
437.93	1910.75
438.14	1850.95
438.35	1709.85
438.56	1830.68
438.77	1856.28
438.97	1931.03
439.18	1717.43
439.39	1993.49
439.60	1723.57
439.80	1682.82
440.01	1786.85
440.22	1814.30
440.43	1966.25
440.64	1697.15
440.84	1848.91
441.05	1769.04
441.26	2239.66
441.47	1828.22
441.68	1759.61
441.88	1856.69
442.09	1820.23
442.30	1954.79
442.51	1809.79
442.71	1850.75
442.92	1909.73
443.13	1762.89
443.34	1711.28
443.55	1754.29
443.75	1970.76
443.96	1736.06
444.17	1741.39
444.38	2040.60
444.58	1772.72
444.79	1841.53
445.00	1842.35
445.21	1870.41
445.41	1873.69
445.62	1610.73
445.83	1872.46
446.04	1932.46
446.24	1743.03
446.45	1650.25
446.66	1753.27
446.87	1923.66
447.07	1836.00
447.28	1993.70
447.49	1819.21
447.70	2025.65
447.90	2032.40
448.11	1797.30
448.32	1867.75
448.53	2071.93
448.73	2050.02
448.94	1778.05
449.15	1923.25
449.36	1907.68
449.56	1948.44
449.77	1786.85
449.98	1694.08
450.19	1872.25
450.39	1860.58
450.60	1861.60
450.81	1851.16
451.02	1924.48
451.22	2110.02
451.43	1782.14
451.64	1783.78
451.84	1848.91
452.05	2054.11
452.26	1831.70
452.47	1838.05
452.67	1836.41
452.88	2061.69
453.09	1771.49
453.30	1725.62
453.50	1994.52
453.71	2085.86
453.92	1777.84
454.12	1854.23
454.33	1809.18
454.54	1870.41
454.75	1719.27
454.95	1721.93
455.16	1916.49
455.37	1943.11
455.57	1795.25
455.78	1799.55
455.99	1881.26
456.19	1909.12
456.40	1764.94
456.61	1818.19
456.82	1887.61
457.02	1990.42
457.23	1874.30
457.44	1967.28
457.64	1817.37
457.85	1911.98
458.06	1775.18
458.26	1866.93
458.47	1862.42
458.68	1968.92
458.89	1705.75
459.09	1896.21
459.30	2160.20
459.51	1912.60
459.71	1685.68
459.92	1771.49
460.13	1984.28
460.33	2173.92
460.54	1801.39
460.75	1780.50
460.95	1776.20
461.16	1958.68
461.37	1790.13
461.57	1824.74
461.78	1883.52
461.99	1750.40
462.19	2008.24
462.40	1763.71
462.61	2340.83
462.81	2011.11
463.02	1733.61
463.23	1780.71
463.43	1969.12
463.64	1830.88
463.85	2710.28
464.05	1769.85
464.26	2295.77
464.47	2036.91
464.67	1951.51
464.88	1834.98
465.09	1771.90
465.29	1877.58
465.50	1892.73
465.71	1793.61
465.91	1814.91
466.12	1856.89
466.33	1853.21
466.53	1785.42
466.74	2070.91
466.94	1844.20
467.15	1801.19
467.36	1977.31
467.56	1789.31
467.77	1926.11
467.98	1830.88
468.18	1785.62
468.39	1853.62
468.60	2127.84
468.80	1833.34
469.01	1750.40
469.21	1950.28
469.42	2006.19
469.63	1812.25
469.83	1711.08
470.04	1980.80
470.25	2069.27
470.45	1855.25
470.66	1762.48
470.86	1935.74
471.07	1840.51
471.28	1879.63
471.48	1921.81
471.69	1913.01
471.90	2343.90
472.10	1795.66
472.31	1827.81
472.51	1786.03
472.72	1782.55
472.93	1730.12
473.13	1925.09
473.34	1925.91
473.54	1879.22
473.75	1821.46
473.96	1971.99
474.16	1876.76
474.37	1970.97
474.57	1824.74
474.78	1757.16
474.99	1942.91
475.19	1907.48
475.40	1778.87
475.60	1709.64
475.81	2079.51
476.02	1830.88
476.22	1820.44
476.43	1918.74
476.63	1849.52
476.84	2011.72
477.05	1706.57
477.25	1787.88
477.46	2251.13
477.66	1909.53
477.87	1677.90
478.08	1779.07
478.28	1997.59
478.49	1881.06
478.69	1763.92
478.90	1812.45
479.10	1975.06
479.31	2119.03
479.52	1860.37
479.72	1900.92
479.93	1949.87
480.13	1832.52
480.34	1761.66
480.54	1878.81
480.75	1778.87
480.96	2051.25
481.16	1741.39
481.37	1894.78
481.57	1978.34
481.78	1950.90
481.98	1978.13
482.19	1830.27
482.40	2112.48
482.60	1990.83
482.81	1875.73
483.01	1764.53
483.22	2006.39
483.42	1989.19
483.63	1895.60
483.83	1847.47
484.04	1843.79
484.24	1967.48
484.45	1863.24
484.66	1722.14
484.86	1935.54
485.07	1817.78
485.27	1839.90
485.48	1772.72
485.68	2058.82
485.89	1806.31
486.09	1869.18
486.30	1772.72
486.50	1905.43
486.71	1887.41
486.91	1803.65
487.12	1870.82
487.33	2101.83
487.53	2095.69
487.74	1849.73
487.94	1829.04
488.15	1882.49
488.35	1950.28
488.56	1794.02
488.76	1779.07
488.97	1876.55
489.17	1954.99
489.38	1821.26
489.58	1800.57
489.79	1939.63
489.99	1917.51
490.20	1835.59
490.40	1888.23
490.61	1935.94
490.81	1844.81
491.02	1820.64
491.22	1863.86
491.43	1982.23
491.63	1894.99
491.84	1926.32
492.04	1716.81
492.25	1960.32
492.45	1854.03
492.66	1795.04
492.86	1730.33
493.07	1861.81
493.27	2152.01
493.48	1682.61
493.68	1820.85
493.89	1862.22
494.09	1981.41
494.30	1783.78
494.50	2054.32
494.71	1965.64
494.91	1722.14
495.12	1805.28
495.32	1887.20
495.53	1884.75
495.73	1691.01
495.94	1786.85
496.14	1689.37
496.35	2118.42
496.55	1830.68
496.76	1798.12
496.96	1872.87
497.17	1877.17
497.37	1936.76
497.58	1769.85
497.78	1736.47
497.98	1854.85
498.19	1854.44
498.39	1839.49
498.60	1862.01
498.80	1683.84
499.01	1963.39
499.21	1762.89
499.42	1837.64
499.62	1847.88
499.83	2165.93
500.03	1702.27
500.24	1891.50
500.44	2064.76
500.64	2030.97
500.85	1829.86
501.05	1915.67
501.26	1708.83
501.46	2053.50
501.67	1764.12
501.87	1724.59
502.08	1780.71
502.28	1871.84
502.48	1913.01
502.69	1908.30
502.89	1710.46
503.10	1814.30
503.30	1852.18
503.51	1853.41
503.71	1755.31
503.92	1984.89
504.12	1888.43
504.32	1814.71
504.53	1952.33
504.73	1964.00
504.94	1942.50
505.14	1993.08
505.35	1975.88
505.55	1947.00
505.75	1869.59
505.96	1943.93
506.16	2139.51
506.37	1806.92
506.57	1756.54
506.78	1884.13
506.98	1988.37
507.18	1730.53
507.39	1716.20
507.59	1796.07
507.80	1774.16
508.00	1884.75
508.20	1935.33
508.41	1833.14
508.61	2030.15
508.82	1989.81
509.02	1915.47
509.22	1721.32
509.43	1751.42
509.63	1800.98
509.84	1819.62
510.04	1734.63
510.24	2042.44
510.45	2006.39
510.65	1743.03
510.86	1837.85
511.06	1759.21
511.26	1979.77
511.47	1924.48
511.67	1751.42
511.88	1958.27
512.08	2022.16
512.28	1729.30
512.49	1895.19
512.69	1898.26
512.90	1914.03
513.10	1752.45
513.30	1844.40
513.51	1924.48
513.71	2064.35
513.91	1867.54
514.12	1863.45
514.32	1955.81
514.53	1789.31
514.73	1882.49
514.93	1809.38
515.14	1886.18
515.34	2054.32
515.54	1839.49
515.75	1887.00
515.95	1976.49
516.15	2041.01
516.36	1889.05
516.56	1907.68
516.77	1656.60
516.97	1968.30
517.17	1814.30
517.38	1908.09
517.58	2084.83
517.78	1843.79
517.99	1902.77
518.19	1880.85
518.39	2072.95
518.60	1874.71
518.80	1785.21
519.00	1948.44
519.21	1867.75
519.41	2112.89
519.61	1797.09
519.82	1921.20
520.02	1905.43
520.22	1900.92
520.43	1845.02
520.63	1835.39
520.83	1807.54
521.04	1678.52
521.24	1902.56
521.44	1828.02
521.65	1840.51
521.85	1991.04
522.05	1810.20
522.26	1815.11
522.46	2155.28
522.66	2008.24
522.87	1827.40
523.07	1955.20
523.27	1853.41
523.48	2068.65
523.68	1887.61
523.88	1861.40
524.09	2041.01
524.29	1950.49
524.49	1698.18
524.70	1941.68
524.90	2093.02
525.10	1988.58
525.31	1745.07
525.51	1767.19
525.71	1998.61
525.91	1972.19
526.12	1782.55
526.32	1733.81
526.52	1844.81
526.73	1821.26
526.93	1876.35
527.13	1699.81
527.34	1898.67
527.54	1891.50
527.74	1802.62
527.94	1740.36
528.15	1764.33
528.35	1908.71
528.55	1936.56
528.76	1929.80
528.96	1689.37
529.16	2011.51
529.36	1990.42
529.57	1756.34
529.77	2054.11
529.97	1768.83
530.18	1921.61
530.38	1814.71
530.58	1950.69
530.78	1931.23
530.99	1796.68
531.19	1945.16
531.39	1811.63
531.60	1895.19
531.80	1829.25
532.00	1956.63
532.20	1934.10
532.41	1787.06
532.61	1810.20
532.81	1836.21
533.01	1858.53
533.22	1925.91
533.42	1949.46
533.62	1670.53
533.82	2080.33
534.03	1882.90
534.23	1893.35
534.43	1772.11
534.63	1812.66
534.84	1912.19
535.04	1887.00
535.24	1856.28
535.44	2226.14
535.65	1853.21
535.85	1779.68
536.05	1809.18
536.25	1870.61
536.46	1764.12
536.66	1995.95
536.86	1879.01
537.06	1978.54
537.27	2045.51
537.47	1898.06
537.67	1833.75
537.87	2075.00
538.08	1865.29
538.28	1761.25
538.48	1748.97
538.68	1876.76
538.88	1985.51
539.09	1708.83
539.29	1847.27
539.49	2023.19
539.69	1942.91
539.90	1927.34
540.10	1795.45
540.30	2074.39
540.50	1843.17
540.70	1732.38
540.91	1830.27
541.11	1983.25
541.31	2107.77
541.51	1896.21
541.72	1929.60
541.92	1941.88
542.12	1813.89
542.32	1841.74
542.52	1793.00
542.73	1806.10
542.93	1956.42
543.13	1833.75
543.33	1895.40
543.53	1994.11
543.74	1970.15
543.94	1808.77
544.14	1944.75
544.34	2068.86
544.54	1892.94
544.75	1968.71
544.95	2070.29
545.15	1996.36
545.35	2069.06
545.55	1959.91
545.75	1827.20
545.96	2200.75
546.16	1795.25
546.36	1849.52
546.56	1859.97
546.76	2023.39
546.97	2080.74
547.17	1843.17
547.37	1924.07
547.57	1835.59
547.77	1987.35
547.97	1908.09
548.18	1923.25
548.38	1877.78
548.58	2064.56
548.78	1794.64
548.98	1912.39
549.18	2044.49
549.39	2134.19
549.59	1961.34
549.79	1898.67
549.99	2082.17
550.19	2021.75
550.39	1973.01
550.60	1862.63
550.80	1943.32
551.00	1952.74
551.20	1803.44
551.40	1819.83
551.60	1957.86
551.80	1944.75
552.01	1970.15
552.21	1844.40
552.41	1889.25
552.61	2110.02
552.81	1902.15
553.01	1794.64
553.21	1954.79
553.42	1780.09
553.62	1775.38
553.82	1791.56
554.02	2072.54
554.22	1994.11
554.42	1767.81
554.62	1927.96
554.83	2074.18
555.03	2065.58
555.23	1875.94
555.43	2132.35
555.63	1994.11
555.83	1963.59
556.03	1897.65
556.23	1750.81
556.44	1942.29
556.64	2060.46
556.84	1647.80
557.04	1873.07
557.24	1959.29
557.44	1909.94
557.64	1889.25
557.84	1783.37
558.04	1865.70
558.25	1991.04
558.45	1801.19
558.65	1865.90
558.85	1893.14
559.05	1717.02
559.25	1836.82
559.45	1946.59
559.65	2188.87
559.85	2559.96
560.05	1892.53
560.26	1927.96
560.46	1944.75
560.66	1883.52
560.86	1857.51
561.06	1797.50
561.26	2066.40
561.46	1956.63
561.66	1841.74
561.86	1945.78
562.06	1820.44
562.26	1862.01
562.47	1908.30
562.67	1774.56
562.87	1982.64
563.07	1721.93
563.27	1893.14
563.47	1876.55
563.67	1834.57
563.87	1980.18
564.07	1826.38
564.27	1878.19
564.47	1883.11
564.67	1940.45
564.87	1791.15
565.08	1921.61
565.28	1829.66
565.48	1953.35
565.68	1927.96
565.88	1956.22
566.08	2187.85
566.28	1882.90
566.48	1749.78
566.68	1866.93
566.88	1836.00
567.08	2011.11
567.28	1859.56
567.48	1849.73
567.68	1927.55
567.88	1734.22
568.08	1900.72
568.28	2006.80
568.48	1894.58
568.68	2042.03
568.89	1901.74
569.09	1730.74
569.29	2008.44
569.49	2000.05
569.69	1795.45
569.89	1755.93
570.09	1681.79
570.29	1780.30
570.49	1713.95
570.69	1768.22
570.89	1973.63
571.09	2175.35
571.29	1725.00
571.49	1995.75
571.69	1949.26
571.89	1942.09
572.09	1841.53
572.29	1805.49
572.49	1965.44
572.69	1979.57
572.89	1851.77
573.09	1640.42
573.29	1887.61
573.49	1922.63
573.69	1864.68
573.89	1942.09
574.09	1863.65
574.29	2021.35
574.49	1815.11
574.69	1809.79
574.89	1760.23
575.09	1763.71
575.29	1753.06
575.49	1876.76
575.69	1949.87
575.89	1756.13
576.09	1877.58
576.29	1881.47
576.49	1761.25
576.69	1880.24
576.89	1811.02
577.09	1883.52
577.29	1712.72
577.49	2095.48
577.69	1769.04
577.89	1915.06
578.09	1920.38
578.29	1712.51
578.49	1849.11
578.69	1794.43
578.89	2037.11
579.09	1898.47
579.29	1746.92
579.49	1977.52
579.69	1830.47
579.89	2125.79
580.09	1666.02
580.29	1692.03
580.49	1820.23
580.69	1772.11
580.89	1845.63
581.09	1849.11
581.29	1838.87
581.49	1860.17
581.69	1779.07
581.89	1780.50
582.09	1793.41
582.28	1809.59
582.48	1937.38
582.68	2014.38
582.88	2071.73
583.08	1868.57
583.28	1855.25
583.48	1864.68
583.68	1800.37
583.88	1881.88
584.08	1880.24
584.28	1871.02
584.48	2150.98
584.68	1971.58
584.88	1847.06
585.08	1976.70
585.28	2002.71
585.48	2057.18
585.68	1939.63
585.87	1977.52
586.07	1937.17
586.27	1900.92
586.47	1949.87
586.67	1874.71
586.87	1898.67
587.07	1840.71
587.27	1748.56
587.47	1887.41
587.67	2117.60
587.87	2210.17
588.07	1967.07
588.27	1879.63
588.46	2038.96
588.66	2052.27
588.86	1889.46
589.06	1927.96
589.26	2019.30
589.46	1981.00
589.66	1770.47
589.86	1784.19
590.06	1861.40
590.26	1941.68
590.46	1844.81
590.66	1971.99
590.85	1859.97
591.05	1950.49
591.25	1807.95
591.45	1855.66
591.65	1968.10
591.85	1921.40
592.05	1830.27
592.25	1971.58
592.45	2023.80
592.64	1883.11
592.84	1879.63
593.04	1803.24
593.24	2227.37
593.44	1857.92
593.64	1926.52
593.84	1974.86
594.04	1867.54
594.24	2087.49
594.43	1798.12
594.63	1884.54
